Experiment	Z spectroscopy	
Saved Date	16.02.2019 17:38:38	
User		
X (m)	75.834E-9	
Y (m)	15.3776E-9	
Z (m)	-16.9806E-9	
Z offset (m)	700E-12	
Z sweep distance (m)	1.12E-9	
Settling time (s)	10E-3	
Integration time (s)	60E-3	
Final Z (m)	N/A	
Start time	16.02.2019 17:37:03	
Filter type	None	
Order		
Cutoff frq		

[DATA]
Z rel (m)	Current (A)	Bias (V)	Z (m)	OC D1 Phase (deg)	OC D1 Amplitude (m)	OC M1 Freq. Shift (Hz)	OC M1 Excitation (V)	Current [bwd] (A)	Bias [bwd] (V)	Z [bwd] (m)	OC D1 Phase [bwd] (deg)	OC D1 Amplitude [bwd] (m)	OC M1 Freq. Shift [bwd] (Hz)	OC M1 Excitation [bwd] (V)
700.00000E-12	-229.11518E-15	0.0000000E+0	-16.280579E-9	2.3018267E+0	45.633702E-12	243.75831E-3	172.85121E-6	-214.49232E-15	0.0000000E+0	-16.280579E-9	2.0505607E+0	49.077284E-12	226.09979E-3	216.46898E-6
697.75552E-12	-231.44678E-15	0.0000000E+0	-16.282824E-9	551.63568E-3	34.845134E-12	144.04985E-3	332.87541E-6	-213.04876E-15	0.0000000E+0	-16.282824E-9	-1.0709878E+0	49.649146E-12	-99.094033E-3	206.11774E-6
695.51104E-12	-229.50655E-15	0.0000000E+0	-16.285068E-9	-1.4254475E+0	42.924896E-12	-66.485465E-3	288.74332E-6	-221.11985E-15	0.0000000E+0	-16.285068E-9	624.02850E-3	51.157339E-12	104.57359E-3	188.31417E-6
693.26656E-12	-242.71633E-15	0.0000000E+0	-16.287313E-9	-2.6413729E+0	56.625097E-12	-218.95894E-3	135.43302E-6	-223.51108E-15	0.0000000E+0	-16.287313E-9	-1.8107978E+0	48.318773E-12	-148.28363E-3	221.85926E-6
691.02207E-12	-211.55742E-15	0.0000000E+0	-16.289556E-9	485.54751E-3	53.803018E-12	50.375272E-3	145.85265E-6	-221.28061E-15	0.0000000E+0	-16.289556E-9	-1.8405082E+0	48.789878E-12	-76.131314E-3	206.91949E-6
688.77754E-12	-246.07895E-15	0.0000000E+0	-16.291802E-9	1.6345934E+0	49.208946E-12	155.26129E-3	190.14475E-6	-248.72446E-15	0.0000000E+0	-16.291802E-9	4.2828450E+0	49.090787E-12	454.82650E-3	199.33192E-6
686.53305E-12	-252.73398E-15	0.0000000E+0	-16.294045E-9	229.15815E-3	50.265587E-12	89.151427E-3	185.30172E-6	-255.81273E-15	0.0000000E+0	-16.294045E-9	1.6228553E+0	49.419413E-12	176.63331E-3	200.69607E-6
684.28857E-12	-239.75011E-15	0.0000000E+0	-16.296291E-9	-892.07858E-3	50.115662E-12	-15.529496E-3	177.59908E-6	-242.56443E-15	0.0000000E+0	-16.296291E-9	2.4142587E+0	53.264244E-12	164.37916E-3	157.99924E-6
682.04409E-12	-231.55805E-15	0.0000000E+0	-16.298534E-9	2.9085586E+0	48.112254E-12	344.67962E-3	203.48569E-6	-227.86964E-15	0.0000000E+0	-16.298534E-9	-4.7355967E+0	48.441938E-12	-460.75371E-3	213.58333E-6
679.79961E-12	-216.40463E-15	0.0000000E+0	-16.300779E-9	-1.1539483E+0	53.126854E-12	21.388656E-3	145.69692E-6	-254.70216E-15	0.0000000E+0	-16.300779E-9	-709.69296E-3	44.741221E-12	-27.455149E-3	240.05084E-6
677.55512E-12	-236.88969E-15	0.0000000E+0	-16.303023E-9	2.4662941E+0	49.905538E-12	377.67294E-3	173.97504E-6	-237.93554E-15	0.0000000E+0	-16.303023E-9	263.16017E-3	53.326763E-12	61.332498E-3	146.32569E-6
675.31064E-12	-236.55375E-15	0.0000000E+0	-16.305268E-9	-2.2260582E+0	47.300060E-12	-73.502883E-3	206.65560E-6	-236.90704E-15	0.0000000E+0	-16.305268E-9	-388.98531E-3	51.916953E-12	-9.8674903E-3	171.89070E-6
673.06616E-12	-240.76086E-15	0.0000000E+0	-16.307512E-9	-3.7984743E+0	47.473608E-12	-263.36402E-3	215.66072E-6	-230.18599E-15	0.0000000E+0	-16.307512E-9	1.1677409E+0	49.383442E-12	156.15956E-3	200.11562E-6
670.82162E-12	-227.81465E-15	0.0000000E+0	-16.309757E-9	2.3951426E+0	55.004362E-12	274.91349E-3	130.11449E-6	-237.37495E-15	0.0000000E+0	-16.309757E-9	-1.2415872E+0	47.589745E-12	-62.666818E-3	216.00086E-6
668.57714E-12	-241.99498E-15	0.0000000E+0	-16.312001E-9	-615.22484E-3	56.187117E-12	55.384587E-3	95.274620E-6	-227.03237E-15	0.0000000E+0	-16.312001E-9	-444.16866E-3	44.627000E-12	10.846966E-3	233.19994E-6
666.33266E-12	-233.67343E-15	0.0000000E+0	-16.314246E-9	-1.8302947E+0	49.987337E-12	-83.386004E-3	149.72569E-6	-213.85262E-15	0.0000000E+0	-16.314246E-9	-2.0080764E+0	42.358742E-12	-70.273928E-3	232.89511E-6
664.08817E-12	-224.78877E-15	0.0000000E+0	-16.316491E-9	-175.29246E-3	46.514102E-12	33.460867E-3	192.46136E-6	-225.79952E-15	0.0000000E+0	-16.316491E-9	1.8217047E+0	51.278232E-12	255.21481E-3	124.39270E-6
661.84369E-12	-234.74213E-15	0.0000000E+0	-16.318735E-9	-2.1233680E+0	44.506072E-12	-215.87278E-3	235.67452E-6	-242.66895E-15	0.0000000E+0	-16.318735E-9	867.63871E-3	50.706508E-12	128.62906E-3	131.36247E-6
659.59921E-12	-223.41462E-15	0.0000000E+0	-16.320980E-9	-1.1543895E+0	52.073870E-12	-185.36754E-3	160.14148E-6	-252.51611E-15	0.0000000E+0	-16.320980E-9	-242.19866E-3	48.024494E-12	47.914729E-3	160.83808E-6
657.35473E-12	-231.70105E-15	0.0000000E+0	-16.323224E-9	-314.99997E-3	53.054405E-12	-69.045931E-3	135.70867E-6	-251.02349E-15	0.0000000E+0	-16.323224E-9	-2.4978561E+0	46.486648E-12	-109.64448E-3	164.02329E-6
655.11024E-12	-246.48808E-15	0.0000000E+0	-16.325469E-9	1.6357346E+0	52.642050E-12	95.646270E-3	132.58484E-6	-238.43476E-15	0.0000000E+0	-16.325469E-9	-3.3112330E+0	52.008887E-12	-80.785282E-3	106.34962E-6
652.86576E-12	-237.24168E-15	0.0000000E+0	-16.327713E-9	4.7248726E+0	45.749984E-12	503.73894E-3	210.25946E-6	-230.03241E-15	0.0000000E+0	-16.327713E-9	3.8384016E+0	50.707823E-12	573.11487E-3	126.81958E-6
650.62122E-12	-224.95632E-15	0.0000000E+0	-16.329958E-9	-1.8408886E+0	46.400481E-12	-97.729027E-3	220.32771E-6	-228.48184E-15	0.0000000E+0	-16.329958E-9	4.3986764E+0	55.357652E-12	504.85319E-3	78.909405E-6
648.37674E-12	-246.00789E-15	0.0000000E+0	-16.332201E-9	698.04412E-3	54.858118E-12	114.58898E-3	124.30418E-6	-238.25411E-15	0.0000000E+0	-16.332201E-9	776.25680E-3	50.881677E-12	51.047888E-3	143.50745E-6
646.13226E-12	-223.59274E-15	0.0000000E+0	-16.334447E-9	4.0674796E+0	48.635259E-12	509.51993E-3	187.07180E-6	-226.99895E-15	0.0000000E+0	-16.334447E-9	9.6688805E+0	58.177869E-12	710.49958E-3	74.818818E-6
643.88778E-12	-226.04024E-15	0.0000000E+0	-16.336690E-9	285.83786E-3	53.270294E-12	219.06188E-3	129.89788E-6	-224.75409E-15	0.0000000E+0	-16.336690E-9	-3.5222421E+0	57.215677E-12	-591.64900E-3	119.23946E-6
641.64329E-12	-220.85288E-15	0.0000000E+0	-16.338936E-9	3.3935556E+0	53.825323E-12	544.66039E-3	111.07125E-6	-246.27230E-15	0.0000000E+0	-16.338936E-9	-6.9049273E+0	54.528958E-12	-708.70072E-3	168.57129E-6
639.39881E-12	-237.71341E-15	0.0000000E+0	-16.341179E-9	-3.4665239E+0	49.979913E-12	-52.821353E-3	144.71100E-6	-248.92881E-15	0.0000000E+0	-16.341179E-9	-434.95610E-3	45.312719E-12	-53.945247E-3	272.00158E-6
637.15433E-12	-240.35385E-15	0.0000000E+0	-16.343424E-9	-7.0030198E+0	41.649243E-12	-529.70320E-3	247.53922E-6	-238.51472E-15	0.0000000E+0	-16.343424E-9	1.9392191E+0	49.218119E-12	147.48321E-3	215.55684E-6
634.90985E-12	-236.38749E-15	0.0000000E+0	-16.345670E-9	727.67597E-3	47.413181E-12	7.4409810E-3	208.23680E-6	-238.14116E-15	0.0000000E+0	-16.345670E-9	-163.63674E-3	50.072863E-12	-79.897247E-3	202.32830E-6
632.66536E-12	-229.36099E-15	0.0000000E+0	-16.347913E-9	-1.0549518E+0	47.583475E-12	-122.22602E-3	215.52642E-6	-232.81203E-15	0.0000000E+0	-16.347913E-9	814.12774E-3	49.002587E-12	16.412817E-3	217.75540E-6
630.42083E-12	-222.71570E-15	0.0000000E+0	-16.350159E-9	418.83153E-3	49.151232E-12	29.123051E-3	207.75401E-6	-238.68101E-15	0.0000000E+0	-16.350159E-9	771.78085E-3	48.296683E-12	-15.981000E-3	219.96896E-6
628.17634E-12	-229.05977E-15	0.0000000E+0	-16.352402E-9	1.2490577E+0	53.699517E-12	110.32708E-3	152.68190E-6	-236.41074E-15	0.0000000E+0	-16.352402E-9	-1.8021387E+0	46.166841E-12	-252.29153E-3	231.98493E-6
625.93186E-12	-244.20640E-15	0.0000000E+0	-16.354647E-9	803.53707E-3	50.818724E-12	108.22356E-3	178.23299E-6	-226.86567E-15	0.0000000E+0	-16.354647E-9	1.1019790E+0	45.887488E-12	-6.5741492E-3	220.19746E-6
623.68738E-12	-199.12990E-15	0.0000000E+0	-16.356891E-9	-83.594613E-3	45.855843E-12	21.269910E-3	234.15986E-6	-230.20927E-15	0.0000000E+0	-16.356891E-9	1.8596814E+0	50.569104E-12	26.254822E-3	164.94555E-6
621.44290E-12	-243.23460E-15	0.0000000E+0	-16.359136E-9	4.6776619E+0	52.160876E-12	488.49875E-3	175.76154E-6	-231.06303E-15	0.0000000E+0	-16.359136E-9	-350.56898E-3	47.827946E-12	-164.02012E-3	190.26597E-6
619.19841E-12	-239.32576E-15	0.0000000E+0	-16.361380E-9	-799.74973E-3	52.992055E-12	102.27472E-3	151.52806E-6	-226.12995E-15	0.0000000E+0	-16.361380E-9	-6.1037698E+0	48.727158E-12	-608.86437E-3	171.25436E-6
616.95393E-12	-217.18690E-15	0.0000000E+0	-16.363625E-9	-2.5311563E+0	49.580038E-12	-135.63704E-3	184.50734E-6	-242.99174E-15	0.0000000E+0	-16.363625E-9	-2.6567538E+0	42.379947E-12	-151.57874E-3	219.59386E-6
614.70939E-12	-247.49246E-15	0.0000000E+0	-16.365869E-9	-2.4734564E+0	44.062910E-12	-196.85389E-3	262.04850E-6	-248.34624E-15	0.0000000E+0	-16.365869E-9	-2.8489771E+0	50.993730E-12	-129.32123E-3	115.00907E-6
612.46491E-12	-234.31989E-15	0.0000000E+0	-16.368114E-9	-3.6143992E+0	43.550948E-12	-437.75997E-3	294.31842E-6	-246.12506E-15	0.0000000E+0	-16.368114E-9	-4.3874483E+0	47.520946E-12	-145.59640E-3	147.67074E-6
610.22043E-12	-210.54457E-15	0.0000000E+0	-16.370358E-9	-928.15560E-3	55.360241E-12	-227.47023E-3	161.37408E-6	-237.51584E-15	0.0000000E+0	-16.370358E-9	1.1639022E+0	51.504929E-12	392.61821E-3	102.02183E-6
607.97595E-12	-228.95187E-15	0.0000000E+0	-16.372603E-9	-1.3250383E+0	49.889322E-12	-304.25674E-3	209.77814E-6	-239.42689E-15	0.0000000E+0	-16.372603E-9	5.6075945E+0	52.870902E-12	678.20519E-3	98.648976E-6
605.73146E-12	-228.46365E-15	0.0000000E+0	-16.374846E-9	-3.5757327E+0	52.139425E-12	-538.91969E-3	180.43823E-6	-250.66386E-15	0.0000000E+0	-16.374846E-9	810.33957E-3	50.643628E-12	163.66714E-3	122.98960E-6
603.48698E-12	-213.57761E-15	0.0000000E+0	-16.377092E-9	1.3045219E+0	53.932185E-12	-156.96734E-3	150.42683E-6	-244.34813E-15	0.0000000E+0	-16.377092E-9	2.1425185E+0	53.345248E-12	188.35942E-3	101.06804E-6
601.24250E-12	-242.60506E-15	0.0000000E+0	-16.379337E-9	5.2540984E+0	49.764737E-12	287.44343E-3	192.01943E-6	-239.40149E-15	0.0000000E+0	-16.379337E-9	1.6966109E+0	55.790868E-12	133.17576E-3	95.878248E-6
598.99802E-12	-231.27290E-15	0.0000000E+0	-16.381581E-9	-297.94067E-3	43.768163E-12	-84.820680E-3	266.33832E-6	-270.70129E-15	0.0000000E+0	-16.381581E-9	2.5275753E+0	42.275225E-12	161.36871E-3	238.80630E-6
596.75354E-12	-225.11032E-15	0.0000000E+0	-16.383826E-9	1.2319435E+0	50.041880E-12	19.641146E-3	211.35715E-6	-239.13960E-15	0.0000000E+0	-16.383826E-9	-1.1585977E+0	48.792435E-12	-151.97629E-3	149.96070E-6
594.50900E-12	-217.57106E-15	0.0000000E+0	-16.386069E-9	-694.34994E-3	49.979409E-12	-119.50102E-3	211.75545E-6	-254.80326E-15	0.0000000E+0	-16.386069E-9	4.4855742E+0	51.111729E-12	246.12005E-3	127.86218E-6
592.26452E-12	-234.33385E-15	0.0000000E+0	-16.388315E-9	1.6632339E+0	50.605891E-12	73.704354E-3	206.05321E-6	-222.26639E-15	0.0000000E+0	-16.388315E-9	-960.62380E-3	54.668867E-12	-268.14085E-3	99.029872E-6
590.02003E-12	-230.84895E-15	0.0000000E+0	-16.390558E-9	-2.1482613E+0	50.568789E-12	-234.92961E-3	202.36507E-6	-236.83299E-15	0.0000000E+0	-16.390558E-9	-733.35242E-3	56.629885E-12	-216.70428E-3	96.573713E-6
587.77555E-12	-240.13511E-15	0.0000000E+0	-16.392804E-9	-3.1149201E+0	50.092264E-12	-440.16236E-3	203.85947E-6	-242.63889E-15	0.0000000E+0	-16.392804E-9	-798.39808E-3	52.806714E-12	-194.65718E-3	156.57327E-6
585.53107E-12	-224.23877E-15	0.0000000E+0	-16.395047E-9	-2.1439879E+0	50.048209E-12	-419.63938E-3	207.54414E-6	-226.24925E-15	0.0000000E+0	-16.395047E-9	2.1486106E+0	49.443189E-12	79.195030E-3	189.59321E-6
583.28659E-12	-229.48581E-15	0.0000000E+0	-16.397292E-9	237.09305E-3	49.613702E-12	-248.42837E-3	214.34695E-6	-222.84134E-15	0.0000000E+0	-16.397292E-9	1.5560708E+0	50.999618E-12	-68.862401E-3	178.88875E-6
581.04210E-12	-234.98201E-15	0.0000000E+0	-16.399536E-9	570.24598E-3	53.677049E-12	-205.01697E-3	162.63255E-6	-228.47929E-15	0.0000000E+0	-16.399536E-9	-2.8387418E+0	45.635370E-12	-465.45646E-3	227.44127E-6
578.79762E-12	-239.13412E-15	0.0000000E+0	-16.401781E-9	1.3307841E+0	48.922231E-12	-40.020373E-3	218.34174E-6	-231.17855E-15	0.0000000E+0	-16.401781E-9	-6.7912679E+0	46.346531E-12	-642.76993E-3	204.81918E-6
576.55314E-12	-232.28657E-15	0.0000000E+0	-16.404025E-9	-4.0502105E+0	55.542519E-12	-576.05565E-3	132.51849E-6	-225.19451E-15	0.0000000E+0	-16.404025E-9	-2.2439318E+0	43.729534E-12	-145.27522E-3	217.92480E-6
574.30860E-12	-247.79159E-15	0.0000000E+0	-16.406270E-9	-239.74827E-3	47.671520E-12	-276.21150E-3	209.56868E-6	-240.99990E-15	0.0000000E+0	-16.406270E-9	3.3133984E+0	52.843119E-12	303.26018E-3	112.81055E-6
572.06412E-12	-214.29261E-15	0.0000000E+0	-16.408514E-9	3.5232856E+0	57.291373E-12	96.635163E-3	100.96305E-6	-226.56149E-15	0.0000000E+0	-16.408514E-9	-383.61824E-3	52.156803E-12	-59.489235E-3	127.95544E-6
569.81964E-12	-239.83940E-15	0.0000000E+0	-16.410759E-9	950.18613E-3	51.410241E-12	-39.883915E-3	147.25230E-6	-236.00078E-15	0.0000000E+0	-16.410759E-9	-576.68698E-3	53.111113E-12	-64.610414E-3	131.13522E-6
567.57515E-12	-210.09949E-15	0.0000000E+0	-16.413004E-9	-2.9610813E+0	52.476943E-12	-404.95408E-3	127.36995E-6	-248.09874E-15	0.0000000E+0	-16.413004E-9	-2.9996772E+0	50.163415E-12	-251.59037E-3	161.82178E-6
565.33067E-12	-230.81764E-15	0.0000000E+0	-16.415248E-9	-3.0761192E+0	55.012508E-12	-515.84518E-3	80.741636E-6	-217.11624E-15	0.0000000E+0	-16.415248E-9	197.28620E-3	48.610192E-12	89.520060E-3	177.76500E-6
563.08619E-12	-225.20298E-15	0.0000000E+0	-16.417493E-9	2.0439353E+0	50.090959E-12	-34.785785E-3	129.43498E-6	-239.45692E-15	0.0000000E+0	-16.417493E-9	3.9057465E+0	47.313636E-12	348.77127E-3	185.97607E-6
560.84171E-12	-227.34291E-15	0.0000000E+0	-16.419737E-9	-926.84627E-3	46.384858E-12	-238.23738E-3	178.79509E-6	-243.70209E-15	0.0000000E+0	-16.419737E-9	5.0971785E+0	54.651519E-12	346.45307E-3	102.55352E-6
558.59717E-12	-204.36550E-15	0.0000000E+0	-16.421982E-9	-3.4293623E+0	51.766556E-12	-537.25773E-3	123.48445E-6	-228.10530E-15	0.0000000E+0	-16.421982E-9	1.9758216E+0	51.236758E-12	-45.795940E-3	158.64952E-6
556.35274E-12	-241.69501E-15	0.0000000E+0	-16.424226E-9	3.8444867E+0	49.146704E-12	114.24544E-3	146.68063E-6	-255.98493E-15	0.0000000E+0	-16.424226E-9	-827.41386E-3	44.825175E-12	-279.40011E-3	218.67946E-6
554.10820E-12	-246.15341E-15	0.0000000E+0	-16.426471E-9	-2.8191471E+0	48.305880E-12	-403.83217E-3	164.30279E-6	-247.50940E-15	0.0000000E+0	-16.426471E-9	-1.0281142E+0	45.348846E-12	-273.14234E-3	197.02023E-6
551.86372E-12	-227.81381E-15	0.0000000E+0	-16.428714E-9	2.4746094E+0	53.382222E-12	19.036895E-3	109.81094E-6	-250.64144E-15	0.0000000E+0	-16.428714E-9	1.3826143E+0	50.098255E-12	-68.911739E-3	135.85674E-6
549.61924E-12	-226.45698E-15	0.0000000E+0	-16.430960E-9	3.5997758E+0	51.050397E-12	219.31042E-3	125.40474E-6	-230.01593E-15	0.0000000E+0	-16.430960E-9	1.1893616E+0	49.542689E-12	-115.90029E-3	145.08587E-6
547.37476E-12	-226.87117E-15	0.0000000E+0	-16.433203E-9	-213.29007E-3	49.530713E-12	-45.350373E-3	136.94717E-6	-244.43148E-15	0.0000000E+0	-16.433203E-9	-3.7989581E+0	43.368413E-12	-512.57014E-3	198.71441E-6
545.13027E-12	-225.84944E-15	0.0000000E+0	-16.435449E-9	2.6949389E+0	44.416512E-12	233.81719E-3	211.06152E-6	-237.14608E-15	0.0000000E+0	-16.435449E-9	-3.2353699E+0	49.844642E-12	-350.35494E-3	113.10301E-6
542.88579E-12	-231.19462E-15	0.0000000E+0	-16.437692E-9	1.9703435E+0	52.056675E-12	217.87980E-3	134.66357E-6	-233.65354E-15	0.0000000E+0	-16.437692E-9	-3.7881310E+0	51.051767E-12	-347.38469E-3	109.34978E-6
540.64131E-12	-238.13015E-15	0.0000000E+0	-16.439937E-9	2.4555745E+0	51.619539E-12	317.90531E-3	129.45813E-6	-224.60559E-15	0.0000000E+0	-16.439937E-9	5.6319599E+0	53.112556E-12	499.46555E-3	93.549046E-6
538.39677E-12	-231.36384E-15	0.0000000E+0	-16.442183E-9	-6.3897958E+0	45.318117E-12	-507.42257E-3	205.55779E-6	-248.82177E-15	0.0000000E+0	-16.442183E-9	-2.4267182E+0	45.897428E-12	-271.34296E-3	171.56178E-6
536.15234E-12	-232.66228E-15	0.0000000E+0	-16.444426E-9	-4.8045325E+0	50.251893E-12	-525.44177E-3	160.46973E-6	-229.09655E-15	0.0000000E+0	-16.444426E-9	-973.76204E-3	51.483588E-12	-117.91161E-3	98.774733E-6
533.90781E-12	-227.87683E-15	0.0000000E+0	-16.446672E-9	-4.8448768E+0	49.314750E-12	-723.50341E-3	172.14105E-6	-247.93416E-15	0.0000000E+0	-16.446672E-9	2.1558762E+0	49.744275E-12	134.10647E-3	118.36556E-6
531.66332E-12	-237.70157E-15	0.0000000E+0	-16.448915E-9	2.8798265E+0	50.355390E-12	-55.086687E-3	157.60714E-6	-227.60648E-15	0.0000000E+0	-16.448915E-9	1.4859928E+0	54.944955E-12	29.073680E-3	72.415110E-6
529.41884E-12	-239.72897E-15	0.0000000E+0	-16.451160E-9	-1.5701016E+0	48.309436E-12	-453.96960E-3	184.63284E-6	-242.90544E-15	0.0000000E+0	-16.451160E-9	4.2042003E+0	54.750954E-12	172.80576E-3	99.927929E-6
527.17436E-12	-246.35057E-15	0.0000000E+0	-16.453404E-9	3.8087521E+0	54.252866E-12	58.173232E-3	113.10152E-6	-242.63382E-15	0.0000000E+0	-16.453404E-9	2.9108491E+0	51.514102E-12	5.7630083E-3	139.89910E-6
524.92988E-12	-223.14088E-15	0.0000000E+0	-16.455649E-9	1.7934301E+0	49.584031E-12	-23.499096E-3	151.67818E-6	-235.22276E-15	0.0000000E+0	-16.455649E-9	422.04487E-3	50.366968E-12	-328.50134E-3	158.57925E-6
522.68539E-12	-236.95144E-15	0.0000000E+0	-16.457893E-9	-529.79338E-3	47.539681E-12	-172.04082E-3	180.84311E-6	-218.04576E-15	0.0000000E+0	-16.457893E-9	-2.0758336E+0	54.643901E-12	-494.07831E-3	119.16739E-6
520.44091E-12	-202.86992E-15	0.0000000E+0	-16.460138E-9	-4.9011111E+0	43.957473E-12	-650.97654E-3	236.73632E-6	-231.70230E-15	0.0000000E+0	-16.460138E-9	2.4224434E+0	53.680282E-12	-84.690973E-3	146.11069E-6
518.19637E-12	-219.70338E-15	0.0000000E+0	-16.462382E-9	-2.9594178E+0	45.113933E-12	-575.09971E-3	241.62605E-6	-243.66655E-15	0.0000000E+0	-16.462382E-9	-2.0161703E+0	52.665969E-12	-530.13414E-3	165.56651E-6
515.95195E-12	-226.67317E-15	0.0000000E+0	-16.464627E-9	2.5983186E+0	50.445502E-12	-83.140448E-3	196.24984E-6	-229.95329E-15	0.0000000E+0	-16.464627E-9	1.1032797E+0	48.713408E-12	-261.99874E-3	208.23923E-6
513.70741E-12	-234.58137E-15	0.0000000E+0	-16.466871E-9	2.2834437E+0	50.649401E-12	-54.436296E-3	188.75465E-6	-248.79724E-15	0.0000000E+0	-16.466871E-9	-3.0928054E+0	53.166735E-12	-620.71127E-3	166.01439E-6
511.46293E-12	-233.99116E-15	0.0000000E+0	-16.469116E-9	2.1334598E+0	47.208789E-12	56.183130E-3	223.85943E-6	-220.53769E-15	0.0000000E+0	-16.469116E-9	-48.868719E-3	51.563531E-12	-276.22151E-3	193.18031E-6
509.21845E-12	-234.94691E-15	0.0000000E+0	-16.471359E-9	-3.6815031E+0	49.457046E-12	-495.67941E-3	203.35281E-6	-249.14288E-15	0.0000000E+0	-16.471359E-9	5.0369043E+0	55.283181E-12	74.280351E-3	163.41443E-6
506.97396E-12	-234.44132E-15	0.0000000E+0	-16.473605E-9	-1.6967715E+0	52.371312E-12	-381.14813E-3	171.43878E-6	-229.06612E-15	0.0000000E+0	-16.473605E-9	2.9878421E+0	53.662748E-12	-217.51595E-3	198.74255E-6
504.72948E-12	-244.33713E-15	0.0000000E+0	-16.475850E-9	-3.1904433E+0	51.291801E-12	-602.10979E-3	171.68385E-6	-243.82520E-15	0.0000000E+0	-16.475850E-9	1.8765651E+0	49.453747E-12	-362.23421E-3	254.11669E-6
502.48500E-12	-235.10894E-15	0.0000000E+0	-16.478094E-9	-3.2432370E+0	58.588419E-12	-729.28900E-3	79.130557E-6	-215.23142E-15	0.0000000E+0	-16.478094E-9	1.3130124E+0	46.959783E-12	-441.80834E-3	269.69815E-6
500.24052E-12	-239.72686E-15	0.0000000E+0	-16.480339E-9	3.1467004E+0	51.510043E-12	-110.32358E-3	133.52523E-6	-251.91405E-15	0.0000000E+0	-16.480339E-9	-1.4027606E+0	45.521992E-12	-682.98006E-3	271.64104E-6
497.99598E-12	-236.83128E-15	0.0000000E+0	-16.482582E-9	1.1720353E+0	46.836167E-12	-243.13723E-3	193.01845E-6	-236.25717E-15	0.0000000E+0	-16.482582E-9	2.9449306E+0	46.014737E-12	-304.40548E-3	249.26921E-6
495.75150E-12	-236.67814E-15	0.0000000E+0	-16.484828E-9	-5.5211439E+0	42.711550E-12	-883.96698E-3	250.51759E-6	-223.72516E-15	0.0000000E+0	-16.484828E-9	1.4028637E+0	60.387757E-12	-534.83361E-3	110.28993E-6
493.50701E-12	-239.67777E-15	0.0000000E+0	-16.487071E-9	5.3939509E+0	51.144752E-12	88.091388E-3	175.37309E-6	-257.97043E-15	0.0000000E+0	-16.487071E-9	804.45790E-3	55.171229E-12	-587.35853E-3	191.18260E-6
491.26253E-12	-237.61443E-15	0.0000000E+0	-16.489317E-9	-924.93051E-3	46.152516E-12	-373.38156E-3	230.36722E-6	-228.13956E-15	0.0000000E+0	-16.489317E-9	-3.4917314E+0	53.177102E-12	-914.23863E-3	227.49799E-6
489.01805E-12	-229.67408E-15	0.0000000E+0	-16.491560E-9	-588.29015E-3	45.731741E-12	-363.30649E-3	258.36236E-6	-242.96510E-15	0.0000000E+0	-16.491560E-9	-4.2968884E+0	48.686801E-12	-881.96588E-3	282.64042E-6
486.77357E-12	-232.74392E-15	0.0000000E+0	-16.493805E-9	-1.4222431E+0	48.152038E-12	-429.55682E-3	244.04122E-6	-234.24754E-15	0.0000000E+0	-16.493805E-9	-2.1288228E+0	42.290043E-12	-616.53799E-3	340.22023E-6
484.52908E-12	-245.48877E-15	0.0000000E+0	-16.496049E-9	-3.0602059E+0	44.577918E-12	-622.02930E-3	295.31203E-6	-245.70325E-15	0.0000000E+0	-16.496049E-9	-6.0705810E+0	43.008243E-12	-798.31564E-3	306.47553E-6
482.28460E-12	-237.97362E-15	0.0000000E+0	-16.498294E-9	-2.6360788E+0	51.904103E-12	-681.29742E-3	221.56298E-6	-224.48586E-15	0.0000000E+0	-16.498294E-9	2.1830847E+0	42.561211E-12	4.5063403E-3	282.60442E-6
480.04012E-12	-235.53880E-15	0.0000000E+0	-16.500538E-9	-3.0991502E+0	50.832810E-12	-817.03854E-3	225.62139E-6	-216.82179E-15	0.0000000E+0	-16.500538E-9	2.9660611E+0	49.807259E-12	-32.235526E-3	189.74990E-6
477.79558E-12	-218.62368E-15	0.0000000E+0	-16.502783E-9	771.46101E-3	48.161190E-12	-485.97747E-3	258.55881E-6	-254.54942E-15	0.0000000E+0	-16.502783E-9	3.9438269E+0	48.535499E-12	-60.378600E-3	206.23252E-6
475.55110E-12	-221.75827E-15	0.0000000E+0	-16.505027E-9	723.28800E-3	44.972935E-12	-491.34347E-3	298.81237E-6	-241.89979E-15	0.0000000E+0	-16.505027E-9	-4.0046024E+0	46.173090E-12	-723.36185E-3	216.10476E-6
473.30662E-12	-246.72118E-15	0.0000000E+0	-16.507272E-9	3.2779377E+0	48.294022E-12	-258.49244E-3	278.44153E-6	-232.86706E-15	0.0000000E+0	-16.507272E-9	-959.07819E-3	46.950926E-12	-385.24470E-3	202.75087E-6
471.06213E-12	-242.40451E-15	0.0000000E+0	-16.509517E-9	3.7526796E+0	54.573363E-12	-74.741699E-3	204.06312E-6	-225.11244E-15	0.0000000E+0	-16.509517E-9	-130.43569E-3	47.202641E-12	-276.94613E-3	185.31633E-6
468.81765E-12	-242.71801E-15	0.0000000E+0	-16.511761E-9	-1.6456207E+0	52.999626E-12	-510.03844E-3	204.94053E-6	-230.24649E-15	0.0000000E+0	-16.511761E-9	-790.72958E-3	51.893861E-12	-265.02237E-3	133.76611E-6
466.57317E-12	-242.98074E-15	0.0000000E+0	-16.514006E-9	-242.81996E-3	52.155894E-12	-467.84970E-3	203.95905E-6	-244.41159E-15	0.0000000E+0	-16.514006E-9	515.57785E-3	56.864277E-12	-172.46941E-3	94.599804E-6
464.32866E-12	-225.02189E-15	0.0000000E+0	-16.516250E-9	-810.01204E-3	53.749585E-12	-487.95322E-3	176.40468E-6	-240.33523E-15	0.0000000E+0	-16.516250E-9	3.1438205E+0	54.867617E-12	-31.173494E-3	141.77924E-6
462.08418E-12	-233.42637E-15	0.0000000E+0	-16.518495E-9	-1.8006462E+0	53.330791E-12	-578.11695E-3	167.58505E-6	-246.30192E-15	0.0000000E+0	-16.518495E-9	6.8018579E+0	50.192177E-12	117.55122E-3	196.87845E-6
459.83969E-12	-244.19456E-15	0.0000000E+0	-16.520739E-9	-3.5839310E+0	47.590862E-12	-805.21309E-3	230.72523E-6	-219.92422E-15	0.0000000E+0	-16.520739E-9	444.44814E-3	46.177420E-12	-501.65021E-3	230.97720E-6
457.59521E-12	-230.63108E-15	0.0000000E+0	-16.522984E-9	-1.6533401E+0	48.789649E-12	-736.05007E-3	221.27765E-6	-243.88485E-15	0.0000000E+0	-16.522984E-9	-2.2981217E+0	46.879813E-12	-729.49785E-3	213.17223E-6
455.35070E-12	-219.29087E-15	0.0000000E+0	-16.525227E-9	154.83850E-3	53.540151E-12	-633.31836E-3	168.07736E-6	-242.25771E-15	0.0000000E+0	-16.525227E-9	968.16796E-3	49.123986E-12	-450.03876E-3	180.37962E-6
453.10622E-12	-230.66789E-15	0.0000000E+0	-16.527473E-9	4.1774764E+0	53.760513E-12	-182.96610E-3	146.47572E-6	-244.00460E-15	0.0000000E+0	-16.527473E-9	-3.9399722E+0	50.716313E-12	-808.47716E-3	162.81415E-6
450.86174E-12	-241.51056E-15	0.0000000E+0	-16.529716E-9	2.4437857E+0	50.512931E-12	-230.97272E-3	177.20823E-6	-248.93897E-15	0.0000000E+0	-16.529716E-9	1.0135643E+0	55.858103E-12	-356.21169E-3	119.39449E-6
448.61725E-12	-241.11751E-15	0.0000000E+0	-16.531962E-9	-805.04572E-3	49.473037E-12	-493.26286E-3	186.07457E-6	-228.94636E-15	0.0000000E+0	-16.531962E-9	718.34099E-3	55.364425E-12	-390.87558E-3	150.65995E-6
446.37277E-12	-224.73378E-15	0.0000000E+0	-16.534205E-9	-4.3353143E+0	50.213091E-12	-867.13362E-3	188.56050E-6	-241.79443E-15	0.0000000E+0	-16.534205E-9	-517.71176E-3	51.405713E-12	-494.77482E-3	208.79986E-6
444.12826E-12	-223.22297E-15	0.0000000E+0	-16.536450E-9	2.9017341E+0	52.232923E-12	-243.58970E-3	153.18625E-6	-241.05829E-15	0.0000000E+0	-16.536450E-9	-852.35703E-3	45.089720E-12	-511.94751E-3	270.08509E-6
441.88378E-12	-240.41646E-15	0.0000000E+0	-16.538696E-9	-506.47455E-3	54.205553E-12	-517.38989E-3	118.64543E-6	-248.49388E-15	0.0000000E+0	-16.538696E-9	887.70890E-3	53.226448E-12	-380.48887E-3	174.76392E-6
439.63930E-12	-257.50040E-15	0.0000000E+0	-16.540939E-9	-3.5306745E+0	47.913080E-12	-841.57866E-3	185.14003E-6	-247.48316E-15	0.0000000E+0	-16.540939E-9	388.75696E-3	52.393791E-12	-467.25908E-3	195.10881E-6
437.39481E-12	-235.48294E-15	0.0000000E+0	-16.543185E-9	5.9460607E+0	46.198174E-12	-9.1590984E-3	208.34027E-6	-228.88503E-15	0.0000000E+0	-16.543185E-9	170.50111E-3	47.784870E-12	-532.44120E-3	249.74009E-6
435.15030E-12	-225.82997E-15	0.0000000E+0	-16.545428E-9	4.1056504E+0	43.963340E-12	-12.321790E-3	251.18989E-6	-231.28559E-15	0.0000000E+0	-16.545428E-9	-3.5223565E+0	44.280583E-12	-793.79976E-3	275.88345E-6
432.90582E-12	-230.64249E-15	0.0000000E+0	-16.547673E-9	1.7217001E+0	52.222900E-12	-132.33531E-3	174.62166E-6	-232.24681E-15	0.0000000E+0	-16.547673E-9	-571.36995E-3	40.643159E-12	-460.93214E-3	275.84954E-6
430.66134E-12	-248.54635E-15	0.0000000E+0	-16.549917E-9	-3.7144270E+0	59.908620E-12	-625.55593E-3	60.265120E-6	-224.60094E-15	0.0000000E+0	-16.549917E-9	1.4969965E+0	46.414896E-12	-281.59705E-3	192.59758E-6
428.41686E-12	-242.81109E-15	0.0000000E+0	-16.552162E-9	-227.73814E-3	49.951796E-12	-379.32804E-3	150.24641E-6	-224.88779E-15	0.0000000E+0	-16.552162E-9	-180.79902E-3	53.916951E-12	-469.11025E-3	111.03453E-6
426.17235E-12	-245.04072E-15	0.0000000E+0	-16.554406E-9	-1.6963652E+0	44.639282E-12	-508.94088E-3	219.91330E-6	-214.95474E-15	0.0000000E+0	-16.554406E-9	-4.0983715E+0	49.482991E-12	-776.79193E-3	172.67540E-6
423.92787E-12	-231.12057E-15	0.0000000E+0	-16.556651E-9	-727.19723E-3	46.136709E-12	-521.49677E-3	222.76025E-6	-239.04145E-15	0.0000000E+0	-16.556651E-9	1.1324246E+0	45.780015E-12	-240.29869E-3	201.71747E-6
421.68338E-12	-258.96044E-15	0.0000000E+0	-16.558895E-9	2.2986801E+0	48.754108E-12	-209.62046E-3	198.60193E-6	-240.05770E-15	0.0000000E+0	-16.558895E-9	3.3136535E+0	51.871497E-12	-160.03822E-3	125.94143E-6
419.43890E-12	-223.20858E-15	0.0000000E+0	-16.561140E-9	-3.8407283E+0	46.644914E-12	-734.28106E-3	234.67519E-6	-231.62405E-15	0.0000000E+0	-16.561140E-9	1.2485955E+0	55.581321E-12	-424.13768E-3	96.627409E-6
417.19439E-12	-255.05374E-15	0.0000000E+0	-16.563384E-9	-2.2413092E+0	50.286688E-12	-722.14276E-3	204.43396E-6	-247.98238E-15	0.0000000E+0	-16.563384E-9	-152.40522E-3	54.294447E-12	-597.80002E-3	132.68503E-6
414.94991E-12	-236.50808E-15	0.0000000E+0	-16.565629E-9	1.6447270E+0	54.169884E-12	-388.67611E-3	157.28995E-6	-256.17022E-15	0.0000000E+0	-16.565629E-9	62.915422E-3	49.976939E-12	-553.95597E-3	184.00761E-6
412.70543E-12	-241.62774E-15	0.0000000E+0	-16.567872E-9	2.5192831E+0	55.981560E-12	-215.63546E-3	114.03179E-6	-227.18086E-15	0.0000000E+0	-16.567872E-9	3.1042151E+0	56.928722E-12	-331.32130E-3	120.13529E-6
410.46094E-12	-235.28453E-15	0.0000000E+0	-16.570118E-9	-926.84364E-3	57.014022E-12	-542.41270E-3	83.358893E-6	-229.52389E-15	0.0000000E+0	-16.570118E-9	718.29933E-3	52.692052E-12	-595.00670E-3	187.33856E-6
408.21646E-12	-234.87668E-15	0.0000000E+0	-16.572363E-9	3.3710184E+0	49.192910E-12	-138.65869E-3	155.38449E-6	-242.93252E-15	0.0000000E+0	-16.572363E-9	-1.4636558E+0	50.420355E-12	-786.79413E-3	212.76050E-6
405.97195E-12	-245.94272E-15	0.0000000E+0	-16.574607E-9	-3.2265892E+0	46.077857E-12	-694.79728E-3	195.24030E-6	-251.05140E-15	0.0000000E+0	-16.574607E-9	3.0734859E+0	49.436608E-12	-405.54240E-3	226.04858E-6
403.72747E-12	-237.25946E-15	0.0000000E+0	-16.576852E-9	-854.29186E-3	46.984493E-12	-562.63185E-3	197.95536E-6	-222.90566E-15	0.0000000E+0	-16.576852E-9	859.94333E-3	43.116129E-12	-619.84557E-3	281.04498E-6
401.48299E-12	-235.59675E-15	0.0000000E+0	-16.579095E-9	-3.2474704E+0	45.062180E-12	-790.16083E-3	234.94153E-6	-247.43280E-15	0.0000000E+0	-16.579095E-9	-283.34078E-3	46.577686E-12	-763.31103E-3	224.39973E-6
399.23850E-12	-232.34919E-15	0.0000000E+0	-16.581341E-9	-3.6293812E+0	48.690538E-12	-919.99292E-3	206.64261E-6	-230.52193E-15	0.0000000E+0	-16.581341E-9	-3.6786039E+0	43.107743E-12	-999.69381E-3	238.83220E-6
396.99399E-12	-243.61283E-15	0.0000000E+0	-16.583584E-9	-1.7689449E+0	50.700576E-12	-825.78957E-3	181.46454E-6	-233.81221E-15	0.0000000E+0	-16.583584E-9	-490.96555E-3	49.239831E-12	-700.37138E-3	164.82350E-6
394.74951E-12	-234.13078E-15	0.0000000E+0	-16.585830E-9	-5.9849424E+0	46.109661E-12	-1.3363552E+0	244.16493E-6	-231.94811E-15	0.0000000E+0	-16.585830E-9	-3.1613526E+0	48.581861E-12	-863.30324E-3	165.77287E-6
392.50503E-12	-222.57523E-15	0.0000000E+0	-16.588073E-9	-1.6655440E+0	45.212594E-12	-1.1104102E+0	267.79392E-6	-242.39226E-15	0.0000000E+0	-16.588073E-9	3.9098248E+0	55.308633E-12	-305.58193E-3	102.57207E-6
390.26055E-12	-251.36363E-15	0.0000000E+0	-16.590318E-9	-3.8575201E+0	48.906053E-12	-1.3285226E+0	234.92081E-6	-215.64055E-15	0.0000000E+0	-16.590318E-9	1.8419560E+0	49.915985E-12	-546.52798E-3	169.26380E-6
388.01604E-12	-235.57645E-15	0.0000000E+0	-16.592562E-9	-740.21888E-3	48.198778E-12	-1.1052276E+0	247.06303E-6	-224.57681E-15	0.0000000E+0	-16.592562E-9	-4.3073602E+0	47.772755E-12	-1.0291489E+0	191.68221E-6
385.77155E-12	-239.49796E-15	0.0000000E+0	-16.594807E-9	-617.60539E-3	49.432451E-12	-1.1698322E+0	241.87646E-6	-213.43081E-15	0.0000000E+0	-16.594807E-9	1.2283815E+0	51.041629E-12	-535.66897E-3	156.82900E-6
383.52707E-12	-231.22338E-15	0.0000000E+0	-16.597051E-9	2.3604856E+0	44.176343E-12	-849.56211E-3	306.45786E-6	-243.76852E-15	0.0000000E+0	-16.597051E-9	1.9162394E+0	49.120995E-12	-513.15105E-3	180.37893E-6
381.28259E-12	-233.31172E-15	0.0000000E+0	-16.599296E-9	-944.25595E-3	48.325722E-12	-1.1280822E+0	275.95318E-6	-217.65609E-15	0.0000000E+0	-16.599296E-9	979.40171E-3	48.203240E-12	-621.41681E-3	181.12497E-6
379.03808E-12	-231.37782E-15	0.0000000E+0	-16.601540E-9	-1.4616832E+0	48.720600E-12	-1.2050126E+0	278.50294E-6	-232.46471E-15	0.0000000E+0	-16.601540E-9	1.1176226E+0	48.267813E-12	-656.03739E-3	176.55676E-6
376.79360E-12	-233.65270E-15	0.0000000E+0	-16.603785E-9	-4.1329327E+0	52.400674E-12	-1.5091153E+0	231.72660E-6	-238.10603E-15	0.0000000E+0	-16.603785E-9	-4.6703877E+0	46.351624E-12	-1.1030487E+0	188.39550E-6
374.54911E-12	-240.48290E-15	0.0000000E+0	-16.606030E-9	1.1953208E+0	52.212699E-12	-1.0669022E+0	227.95840E-6	-215.72812E-15	0.0000000E+0	-16.606030E-9	3.7932281E+0	51.706472E-12	-367.86634E-3	121.88841E-6
372.30463E-12	-231.31773E-15	0.0000000E+0	-16.608274E-9	315.17684E-3	56.705699E-12	-1.0939640E+0	162.91888E-6	-222.02269E-15	0.0000000E+0	-16.608274E-9	-2.4258530E+0	52.353056E-12	-914.34783E-3	125.24521E-6
370.06015E-12	-247.26654E-15	0.0000000E+0	-16.610519E-9	-2.4904754E+0	51.311035E-12	-1.3497171E+0	204.92281E-6	-238.17881E-15	0.0000000E+0	-16.610519E-9	1.1094774E+0	48.340276E-12	-553.11966E-3	167.48942E-6
367.81564E-12	-236.59522E-15	0.0000000E+0	-16.612763E-9	1.3214852E+0	51.618401E-12	-1.0626652E+0	202.05062E-6	-238.29558E-15	0.0000000E+0	-16.612763E-9	911.94957E-3	49.960393E-12	-623.60698E-3	146.05322E-6
365.57116E-12	-250.91306E-15	0.0000000E+0	-16.615008E-9	6.3973665E+0	49.626598E-12	-482.34895E-3	219.38629E-6	-244.71749E-15	0.0000000E+0	-16.615008E-9	1.8045726E+0	54.508124E-12	-569.63730E-3	106.13334E-6
363.32667E-12	-235.95467E-15	0.0000000E+0	-16.617252E-9	1.7847986E+0	50.140836E-12	-780.28578E-3	212.92768E-6	-231.35327E-15	0.0000000E+0	-16.617252E-9	1.4623489E+0	58.224765E-12	-688.71379E-3	91.126516E-6
361.08219E-12	-242.58517E-15	0.0000000E+0	-16.619497E-9	2.3987312E+0	50.161458E-12	-694.46701E-3	210.27710E-6	-246.85825E-15	0.0000000E+0	-16.619497E-9	2.7176108E+0	55.667953E-12	-615.96256E-3	138.74665E-6
358.83768E-12	-233.64679E-15	0.0000000E+0	-16.621740E-9	4.5225816E+0	51.444599E-12	-384.97165E-3	198.10582E-6	-240.55608E-15	0.0000000E+0	-16.621740E-9	450.66902E-3	50.989560E-12	-876.28627E-3	206.42349E-6
356.59320E-12	-235.46391E-15	0.0000000E+0	-16.623986E-9	1.0209368E+0	61.929531E-12	-636.07305E-3	58.218433E-6	-227.57601E-15	0.0000000E+0	-16.623986E-9	2.8954234E+0	45.987839E-12	-706.69842E-3	255.23198E-6
354.34872E-12	-233.50506E-15	0.0000000E+0	-16.626229E-9	2.1794584E+0	56.697251E-12	-464.81279E-3	81.581973E-6	-238.65732E-15	0.0000000E+0	-16.626229E-9	-1.6043519E+0	46.421235E-12	-1.1380740E+0	237.67992E-6
352.10423E-12	-213.74600E-15	0.0000000E+0	-16.628475E-9	-3.1021931E+0	47.075913E-12	-975.29423E-3	178.96162E-6	-250.79290E-15	0.0000000E+0	-16.628475E-9	-3.2315114E+0	44.135279E-12	-1.1582793E+0	243.43317E-6
349.85972E-12	-224.52816E-15	0.0000000E+0	-16.630718E-9	-1.3286436E+0	48.381753E-12	-872.64037E-3	173.18805E-6	-242.71123E-15	0.0000000E+0	-16.630718E-9	-4.1292920E+0	40.965776E-12	-1.1317031E+0	254.46145E-6
347.61524E-12	-235.44656E-15	0.0000000E+0	-16.632963E-9	693.35794E-3	46.834776E-12	-708.55314E-3	196.11418E-6	-242.59829E-15	0.0000000E+0	-16.632963E-9	3.1139846E+0	47.018174E-12	-483.57397E-3	159.23052E-6
345.37076E-12	-246.50670E-15	0.0000000E+0	-16.635209E-9	315.63759E-3	48.341248E-12	-733.82354E-3	188.94603E-6	-233.38151E-15	0.0000000E+0	-16.635209E-9	-734.80105E-3	52.982081E-12	-830.18219E-3	95.897965E-6
343.12628E-12	-226.75483E-15	0.0000000E+0	-16.637452E-9	-1.4119619E+0	44.946380E-12	-919.52336E-3	233.97688E-6	-238.40389E-15	0.0000000E+0	-16.637452E-9	2.7395108E+0	55.756916E-12	-574.33826E-3	88.008528E-6
340.88177E-12	-244.23687E-15	0.0000000E+0	-16.639698E-9	-5.4043131E+0	46.000804E-12	-1.3674507E+0	244.91135E-6	-221.13211E-15	0.0000000E+0	-16.639698E-9	5.5535226E+0	49.611090E-12	-396.07155E-3	158.61653E-6
338.63728E-12	-234.92872E-15	0.0000000E+0	-16.641941E-9	-4.9011407E+0	47.283587E-12	-1.4709582E+0	245.76392E-6	-225.48222E-15	0.0000000E+0	-16.641941E-9	494.44053E-3	51.513443E-12	-932.23548E-3	139.53140E-6
336.39280E-12	-225.47247E-15	0.0000000E+0	-16.644186E-9	4.0397692E+0	49.968123E-12	-666.03148E-3	217.52728E-6	-212.90914E-15	0.0000000E+0	-16.644186E-9	3.9501464E+0	51.611687E-12	-690.00357E-3	147.39166E-6
334.14832E-12	-234.42484E-15	0.0000000E+0	-16.646430E-9	1.1682761E+0	53.687214E-12	-835.22648E-3	176.18966E-6	-236.13406E-15	0.0000000E+0	-16.646430E-9	-998.70938E-3	48.983356E-12	-1.1828077E+0	176.79199E-6
331.90384E-12	-229.78407E-15	0.0000000E+0	-16.648675E-9	220.84986E-3	52.060540E-12	-880.38248E-3	178.02995E-6	-218.95157E-15	0.0000000E+0	-16.648675E-9	969.60503E-3	53.334517E-12	-1.0070475E+0	128.04219E-6
329.65933E-12	-241.52452E-15	0.0000000E+0	-16.650919E-9	-1.0768352E+0	52.417275E-12	-1.0232868E+0	166.89289E-6	-255.00465E-15	0.0000000E+0	-16.650919E-9	351.88317E-3	47.725081E-12	-1.0861984E+0	201.39657E-6
327.41485E-12	-221.63811E-15	0.0000000E+0	-16.653164E-9	2.2376027E+0	54.606503E-12	-724.73353E-3	127.07170E-6	-245.18034E-15	0.0000000E+0	-16.653164E-9	-7.1401634E+0	42.576630E-12	-1.6579419E+0	238.50810E-6
325.17036E-12	-225.41197E-15	0.0000000E+0	-16.655408E-9	-1.7084061E+0	47.613986E-12	-1.0563935E+0	201.21173E-6	-242.43032E-15	0.0000000E+0	-16.655408E-9	260.34281E-3	44.772980E-12	-893.65017E-3	184.36764E-6
322.92588E-12	-256.62504E-15	0.0000000E+0	-16.657653E-9	-470.99498E-3	51.685285E-12	-996.85514E-3	159.65657E-6	-230.50753E-15	0.0000000E+0	-16.657653E-9	264.35801E-3	52.220457E-12	-905.15143E-3	95.911615E-6
320.68137E-12	-241.80923E-15	0.0000000E+0	-16.659897E-9	785.57360E-3	56.219019E-12	-870.14824E-3	94.964649E-6	-216.66059E-15	0.0000000E+0	-16.659897E-9	1.4609427E+0	57.492067E-12	-834.01823E-3	62.310901E-6
318.43689E-12	-223.63081E-15	0.0000000E+0	-16.662142E-9	3.2213211E+0	52.041656E-12	-610.17454E-3	126.78436E-6	-235.73298E-15	0.0000000E+0	-16.662142E-9	132.80664E-3	57.475410E-12	-1.0054626E+0	84.073930E-6
316.19241E-12	-225.69502E-15	0.0000000E+0	-16.664385E-9	438.77247E-3	52.478043E-12	-776.96902E-3	117.61439E-6	-217.51775E-15	0.0000000E+0	-16.664385E-9	1.0859355E+0	53.599951E-12	-961.59327E-3	147.39006E-6
313.94792E-12	-220.24788E-15	0.0000000E+0	-16.666631E-9	2.6301749E+0	52.243144E-12	-540.94625E-3	105.75195E-6	-229.66687E-15	0.0000000E+0	-16.666631E-9	-4.8409390E+0	50.359734E-12	-1.4170660E+0	195.93126E-6
311.70341E-12	-238.16864E-15	0.0000000E+0	-16.668876E-9	3.5580397E+0	54.262244E-12	-379.56992E-3	73.156087E-6	-223.82416E-15	0.0000000E+0	-16.668876E-9	-564.30793E-3	47.568324E-12	-932.97273E-3	217.85742E-6
309.45893E-12	-239.31012E-15	0.0000000E+0	-16.671120E-9	1.2277724E+0	48.970154E-12	-488.04107E-3	124.97403E-6	-239.67650E-15	0.0000000E+0	-16.671120E-9	689.12041E-3	46.165783E-12	-811.43165E-3	220.60356E-6
307.21445E-12	-249.63197E-15	0.0000000E+0	-16.673365E-9	-4.6193943E+0	47.249274E-12	-1.0395349E+0	149.48333E-6	-240.59373E-15	0.0000000E+0	-16.673365E-9	6.6071935E+0	51.226603E-12	-433.07725E-3	165.73528E-6
304.96997E-12	-224.71135E-15	0.0000000E+0	-16.675608E-9	-7.4959049E+0	46.140685E-12	-1.4915721E+0	171.11655E-6	-248.83361E-15	0.0000000E+0	-16.675608E-9	2.0995212E+0	46.687560E-12	-976.11839E-3	208.90223E-6
302.72548E-12	-248.87381E-15	0.0000000E+0	-16.677854E-9	-873.01934E-3	46.160527E-12	-1.0234458E+0	189.95148E-6	-229.73794E-15	0.0000000E+0	-16.677854E-9	-4.0288315E+0	46.855027E-12	-1.4706626E+0	198.40547E-6
300.48097E-12	-235.46432E-15	0.0000000E+0	-16.680097E-9	1.8960497E+0	49.545153E-12	-771.74360E-3	158.25703E-6	-230.82231E-15	0.0000000E+0	-16.680097E-9	-1.9541774E+0	46.140758E-12	-1.2012351E+0	197.58311E-6
298.23649E-12	-235.65007E-15	0.0000000E+0	-16.682343E-9	349.81725E-3	44.930518E-12	-875.73028E-3	221.55695E-6	-230.53038E-15	0.0000000E+0	-16.682343E-9	-3.2151537E+0	52.775919E-12	-1.2054079E+0	118.54590E-6
295.99201E-12	-239.72938E-15	0.0000000E+0	-16.684586E-9	209.79974E-3	44.459950E-12	-923.72668E-3	241.90100E-6	-229.49383E-15	0.0000000E+0	-16.684586E-9	3.2635698E+0	51.887879E-12	-664.18886E-3	141.55927E-6
293.74753E-12	-264.11479E-15	0.0000000E+0	-16.686831E-9	2.1439466E+0	48.587540E-12	-747.86842E-3	217.20918E-6	-240.08730E-15	0.0000000E+0	-16.686831E-9	3.9027226E+0	46.959797E-12	-793.02096E-3	191.09326E-6
291.50302E-12	-232.56370E-15	0.0000000E+0	-16.689075E-9	505.47172E-6	47.979447E-12	-897.35532E-3	222.16227E-6	-243.46942E-15	0.0000000E+0	-16.689075E-9	-619.49492E-3	49.881623E-12	-1.1901686E+0	152.74175E-6
289.25853E-12	-230.40473E-15	0.0000000E+0	-16.691320E-9	981.63116E-3	52.261247E-12	-774.04779E-3	176.98901E-6	-257.75424E-15	0.0000000E+0	-16.691320E-9	-2.6636283E+0	47.496777E-12	-1.3163908E+0	176.35777E-6
287.01405E-12	-247.76451E-15	0.0000000E+0	-16.693564E-9	594.36965E-3	54.507371E-12	-744.11970E-3	136.50034E-6	-242.79968E-15	0.0000000E+0	-16.693564E-9	128.59663E-3	50.824258E-12	-1.0483629E+0	133.65230E-6
284.76957E-12	-223.10958E-15	0.0000000E+0	-16.695809E-9	3.6827037E+0	45.896204E-12	-463.97853E-3	233.04306E-6	-224.09070E-15	0.0000000E+0	-16.695809E-9	5.2824383E+0	54.437725E-12	-674.91728E-3	106.48038E-6
282.52506E-12	-245.35251E-15	0.0000000E+0	-16.698053E-9	-4.8006577E+0	44.267794E-12	-1.1508015E+0	267.95585E-6	-230.05399E-15	0.0000000E+0	-16.698053E-9	641.68072E-3	50.881431E-12	-1.2080044E+0	158.93069E-6
280.28058E-12	-227.49817E-15	0.0000000E+0	-16.700298E-9	-3.6427591E+0	51.124938E-12	-1.1945026E+0	204.56288E-6	-236.48902E-15	0.0000000E+0	-16.700298E-9	3.3983347E+0	53.877333E-12	-1.0158347E+0	134.11105E-6
278.03609E-12	-230.63870E-15	0.0000000E+0	-16.702543E-9	-3.8452482E+0	52.303346E-12	-1.3227763E+0	180.48684E-6	-240.63520E-15	0.0000000E+0	-16.702543E-9	-1.7374926E+0	53.448055E-12	-1.4760488E+0	149.74306E-6
275.79161E-12	-228.77631E-15	0.0000000E+0	-16.704787E-9	-3.4913058E+0	51.572951E-12	-1.4409008E+0	176.23909E-6	-250.55088E-15	0.0000000E+0	-16.704787E-9	-5.0045586E+0	52.768349E-12	-1.6630340E+0	167.20357E-6
273.54710E-12	-243.49985E-15	0.0000000E+0	-16.707032E-9	-3.7233729E+0	46.946388E-12	-1.5301254E+0	233.86993E-6	-231.83389E-15	0.0000000E+0	-16.707032E-9	310.59024E-3	52.177269E-12	-1.1176378E+0	182.95238E-6
271.30262E-12	-227.57688E-15	0.0000000E+0	-16.709276E-9	2.5941582E+0	55.417924E-12	-984.83914E-3	134.58301E-6	-230.49951E-15	0.0000000E+0	-16.709276E-9	3.4221323E+0	48.661342E-12	-888.75282E-3	224.99714E-6
269.05814E-12	-265.72800E-15	0.0000000E+0	-16.711521E-9	3.4946187E+0	57.934494E-12	-841.23558E-3	85.928245E-6	-241.67682E-15	0.0000000E+0	-16.711521E-9	6.7418957E+0	49.658135E-12	-759.52941E-3	209.14226E-6
266.81365E-12	-239.89735E-15	0.0000000E+0	-16.713765E-9	900.72018E-3	55.114163E-12	-973.67764E-3	87.840446E-6	-244.22630E-15	0.0000000E+0	-16.713765E-9	5.1636014E+0	54.909889E-12	-1.0678860E+0	159.61002E-6
264.56917E-12	-226.00133E-15	0.0000000E+0	-16.716010E-9	-1.3126972E+0	48.509693E-12	-1.1579922E+0	155.94655E-6	-233.23089E-15	0.0000000E+0	-16.716010E-9	1.7955846E+0	51.161589E-12	-1.5310431E+0	215.94814E-6
262.32466E-12	-241.85070E-15	0.0000000E+0	-16.718253E-9	4.5218234E+0	43.903239E-12	-607.50818E-3	220.25019E-6	-255.73150E-15	0.0000000E+0	-16.718253E-9	-6.2876096E+0	49.398093E-12	-2.1116431E+0	238.41627E-6
260.08018E-12	-229.93003E-15	0.0000000E+0	-16.720499E-9	-2.2368650E+0	44.843150E-12	-1.1638907E+0	237.62888E-6	-222.98774E-15	0.0000000E+0	-16.720499E-9	-2.0548518E+0	48.339256E-12	-1.5833724E+0	238.69731E-6
257.83570E-12	-230.56169E-15	0.0000000E+0	-16.722742E-9	-4.4991603E+0	49.508370E-12	-1.4615172E+0	192.77802E-6	-237.56322E-15	0.0000000E+0	-16.722742E-9	1.0415037E+0	53.647978E-12	-1.3588535E+0	186.91196E-6
255.59121E-12	-235.28198E-15	0.0000000E+0	-16.724988E-9	-534.73979E-3	48.866685E-12	-1.2335360E+0	205.68272E-6	-230.69708E-15	0.0000000E+0	-16.724988E-9	-6.0887260E+0	51.564697E-12	-1.9067303E+0	225.35547E-6
253.34670E-12	-230.82992E-15	0.0000000E+0	-16.727231E-9	1.5306215E+0	49.359499E-12	-962.06516E-3	201.80817E-6	-236.72045E-15	0.0000000E+0	-16.727231E-9	-3.5161455E+0	38.662247E-12	-1.5214719E+0	345.95514E-6
251.10222E-12	-235.94706E-15	0.0000000E+0	-16.729476E-9	-5.1259627E+0	48.671338E-12	-1.6148182E+0	213.15315E-6	-238.20079E-15	0.0000000E+0	-16.729476E-9	2.4580297E+0	37.176644E-12	-972.91994E-3	315.03441E-6
248.85774E-12	-229.08598E-15	0.0000000E+0	-16.731722E-9	-136.05638E-3	49.865171E-12	-1.2694604E+0	204.50134E-6	-227.94538E-15	0.0000000E+0	-16.731722E-9	3.6734357E+0	52.278622E-12	-942.53635E-3	128.94017E-6
246.61326E-12	-246.65223E-15	0.0000000E+0	-16.733965E-9	-2.1339989E+0	50.396159E-12	-1.4636896E+0	189.20517E-6	-217.86891E-15	0.0000000E+0	-16.733965E-9	103.37438E-3	58.453291E-12	-1.3136247E+0	86.014574E-6
244.36875E-12	-247.64053E-15	0.0000000E+0	-16.736211E-9	984.81750E-3	48.378863E-12	-1.1795263E+0	217.36282E-6	-237.92708E-15	0.0000000E+0	-16.736211E-9	1.2281454E+0	56.875768E-12	-1.2571207E+0	131.26658E-6
242.12427E-12	-225.28717E-15	0.0000000E+0	-16.738454E-9	-2.4746680E+0	50.638112E-12	-1.5162292E+0	196.76836E-6	-229.11179E-15	0.0000000E+0	-16.738454E-9	-2.3291969E+0	53.104500E-12	-1.5224292E+0	194.23402E-6
239.87978E-12	-226.55556E-15	0.0000000E+0	-16.740699E-9	-1.2491257E+0	53.295299E-12	-1.4745055E+0	162.82947E-6	-229.46125E-15	0.0000000E+0	-16.740699E-9	586.69639E-3	47.343376E-12	-1.2545851E+0	257.85304E-6
237.63530E-12	-235.45797E-15	0.0000000E+0	-16.742943E-9	-3.6549575E+0	47.586060E-12	-1.7298815E+0	219.35570E-6	-241.62267E-15	0.0000000E+0	-16.742943E-9	2.5003390E+0	52.716376E-12	-1.1223651E+0	200.25679E-6
235.39079E-12	-224.49813E-15	0.0000000E+0	-16.745188E-9	-84.594578E-3	54.140185E-12	-1.4835789E+0	142.37134E-6	-236.88969E-15	0.0000000E+0	-16.745188E-9	4.5422959E+0	47.154714E-12	-1.0539184E+0	259.25084E-6
233.14634E-12	-232.22185E-15	0.0000000E+0	-16.747432E-9	3.3936410E+0	46.883924E-12	-1.0949227E+0	220.64148E-6	-233.90868E-15	0.0000000E+0	-16.747432E-9	3.2947121E+0	54.409650E-12	-1.2781971E+0	183.66832E-6
230.90185E-12	-236.99502E-15	0.0000000E+0	-16.749677E-9	-3.3417909E+0	50.069910E-12	-1.7225181E+0	192.95621E-6	-230.78338E-15	0.0000000E+0	-16.749677E-9	-490.52259E-3	55.438477E-12	-1.6436681E+0	188.29116E-6
228.65732E-12	-238.43942E-15	0.0000000E+0	-16.751921E-9	314.50501E-3	51.361661E-12	-1.5030444E+0	171.75249E-6	-226.65921E-15	0.0000000E+0	-16.751921E-9	572.66009E-3	55.830795E-12	-1.5239500E+0	209.49042E-6
226.41283E-12	-243.60565E-15	0.0000000E+0	-16.754166E-9	691.84744E-3	46.596463E-12	-1.3910650E+0	228.42623E-6	-232.48797E-15	0.0000000E+0	-16.754166E-9	2.7059147E+0	51.503177E-12	-1.4101522E+0	264.23362E-6
224.16835E-12	-248.26668E-15	0.0000000E+0	-16.756410E-9	-133.07759E-3	47.784578E-12	-1.4937451E+0	230.10511E-6	-244.89094E-15	0.0000000E+0	-16.756410E-9	3.9960916E+0	47.931204E-12	-1.3679519E+0	304.04550E-6
221.92387E-12	-240.06532E-15	0.0000000E+0	-16.758655E-9	-4.2511377E+0	51.245799E-12	-1.8849547E+0	196.13082E-6	-242.27845E-15	0.0000000E+0	-16.758655E-9	-1.3966954E+0	41.365567E-12	-1.8779129E+0	358.41620E-6
219.67939E-12	-244.20133E-15	0.0000000E+0	-16.760898E-9	413.11052E-3	49.399946E-12	-1.5615705E+0	206.69521E-6	-235.66698E-15	0.0000000E+0	-16.760898E-9	-1.0062000E+0	44.504112E-12	-1.7705934E+0	293.06239E-6
217.43490E-12	-221.86953E-15	0.0000000E+0	-16.763144E-9	1.6285429E+0	46.856932E-12	-1.3974104E+0	246.07853E-6	-240.75875E-15	0.0000000E+0	-16.763144E-9	2.9006512E+0	49.658239E-12	-1.5032563E+0	232.16133E-6
215.19042E-12	-252.53725E-15	0.0000000E+0	-16.765389E-9	-2.9660139E+0	50.727970E-12	-1.8137212E+0	208.22450E-6	-235.63568E-15	0.0000000E+0	-16.765389E-9	-632.93803E-3	48.582017E-12	-1.8262559E+0	241.33211E-6
212.94594E-12	-232.56836E-15	0.0000000E+0	-16.767633E-9	1.3552549E+0	52.533946E-12	-1.4542162E+0	182.88766E-6	-243.54260E-15	0.0000000E+0	-16.767633E-9	-2.6027138E+0	48.789965E-12	-1.9667548E+0	230.02895E-6
210.70140E-12	-238.10898E-15	0.0000000E+0	-16.769878E-9	365.08241E-3	55.064460E-12	-1.5287001E+0	141.01055E-6	-244.58083E-15	0.0000000E+0	-16.769878E-9	306.74642E-3	48.594476E-12	-1.6219685E+0	226.35664E-6
208.45692E-12	-225.60828E-15	0.0000000E+0	-16.772121E-9	2.3204732E+0	53.087399E-12	-1.3510401E+0	147.33129E-6	-241.81856E-15	0.0000000E+0	-16.772121E-9	-147.57431E-3	41.802568E-12	-1.6976452E+0	285.10712E-6
206.21244E-12	-236.54445E-15	0.0000000E+0	-16.774367E-9	-1.3049705E+0	51.392560E-12	-1.6352890E+0	157.39584E-6	-244.59184E-15	0.0000000E+0	-16.774367E-9	1.6637825E+0	44.965063E-12	-1.5910988E+0	228.18099E-6
203.96795E-12	-220.42006E-15	0.0000000E+0	-16.776610E-9	-501.31154E-3	44.906193E-12	-1.5560278E+0	240.85886E-6	-219.79391E-15	0.0000000E+0	-16.776610E-9	-6.4615045E+0	48.664840E-12	-2.2474785E+0	179.71873E-6
201.72347E-12	-242.32710E-15	0.0000000E+0	-16.778856E-9	-2.9514983E+0	47.906932E-12	-1.8592865E+0	218.01767E-6	-226.85002E-15	0.0000000E+0	-16.778856E-9	-253.01811E-3	46.003153E-12	-1.6115824E+0	200.20554E-6
199.47899E-12	-260.40270E-15	0.0000000E+0	-16.781099E-9	1.1533219E+0	50.930066E-12	-1.5189986E+0	184.75417E-6	-253.42868E-15	0.0000000E+0	-16.781099E-9	-2.6119239E+0	47.825209E-12	-1.7654295E+0	163.55452E-6
197.23451E-12	-224.89202E-15	0.0000000E+0	-16.783344E-9	-878.25322E-3	47.208355E-12	-1.6685110E+0	232.25456E-6	-239.64140E-15	0.0000000E+0	-16.783344E-9	1.6160071E+0	57.680166E-12	-1.3583760E+0	62.329782E-6
194.99002E-12	-240.74731E-15	0.0000000E+0	-16.785588E-9	-4.3496084E+0	46.286478E-12	-2.0552526E+0	257.25306E-6	-231.51828E-15	0.0000000E+0	-16.785588E-9	5.0245318E+0	56.922748E-12	-1.1583240E+0	96.946598E-6
192.74554E-12	-237.71553E-15	0.0000000E+0	-16.787833E-9	-91.874272E-3	51.833590E-12	-1.7516303E+0	195.91182E-6	-233.94505E-15	0.0000000E+0	-16.787833E-9	3.4971371E+0	55.673178E-12	-1.4164701E+0	137.31366E-6
190.50100E-12	-223.57286E-15	0.0000000E+0	-16.790077E-9	-3.1527677E+0	47.486327E-12	-2.0834436E+0	246.65438E-6	-250.69093E-15	0.0000000E+0	-16.790077E-9	152.01284E-3	50.413354E-12	-1.7579483E+0	206.92193E-6
188.25652E-12	-231.12480E-15	0.0000000E+0	-16.792322E-9	281.98859E-3	50.940249E-12	-1.8110309E+0	215.51050E-6	-251.53539E-15	0.0000000E+0	-16.792322E-9	-1.8040962E+0	49.666236E-12	-1.9205350E+0	212.96029E-6
186.01204E-12	-222.81639E-15	0.0000000E+0	-16.794568E-9	228.66321E-3	51.864700E-12	-1.8279668E+0	193.64842E-6	-214.45339E-15	0.0000000E+0	-16.794568E-9	3.5509281E+0	49.074175E-12	-1.4205455E+0	217.28693E-6
183.76756E-12	-236.36336E-15	0.0000000E+0	-16.796811E-9	-2.2760141E+0	43.742749E-12	-2.0226724E+0	291.90868E-6	-236.37860E-15	0.0000000E+0	-16.796811E-9	2.4692304E+0	49.370355E-12	-1.6296724E+0	213.57879E-6
181.52307E-12	-239.62657E-15	0.0000000E+0	-16.799056E-9	2.0269167E+0	53.855583E-12	-1.6643190E+0	195.57269E-6	-246.89465E-15	0.0000000E+0	-16.799056E-9	1.8765283E+0	47.832561E-12	-1.7479014E+0	220.56910E-6
179.27859E-12	-227.92209E-15	0.0000000E+0	-16.801300E-9	-97.873010E-3	54.621418E-12	-1.8055022E+0	161.95439E-6	-220.30965E-15	0.0000000E+0	-16.801300E-9	730.76904E-3	52.267551E-12	-1.8702142E+0	175.00813E-6
177.03411E-12	-246.31165E-15	0.0000000E+0	-16.803545E-9	-2.2681243E+0	50.145586E-12	-2.0480499E+0	200.68411E-6	-242.29368E-15	0.0000000E+0	-16.803545E-9	139.16115E-3	52.405420E-12	-1.9718130E+0	181.51340E-6
174.78963E-12	-226.61606E-15	0.0000000E+0	-16.805789E-9	384.09129E-3	47.858717E-12	-1.8339857E+0	235.63216E-6	-242.37066E-15	0.0000000E+0	-16.805789E-9	530.49380E-3	54.669030E-12	-1.9132731E+0	166.68484E-6
172.54509E-12	-231.66042E-15	0.0000000E+0	-16.808034E-9	516.08229E-3	50.527912E-12	-1.7756323E+0	211.57331E-6	-252.20684E-15	0.0000000E+0	-16.808034E-9	2.4912355E+0	52.845537E-12	-1.7628825E+0	205.03173E-6
170.30061E-12	-220.74499E-15	0.0000000E+0	-16.810278E-9	162.11812E-3	50.947056E-12	-1.8350613E+0	199.67656E-6	-249.40859E-15	0.0000000E+0	-16.810278E-9	1.5569831E+0	47.885817E-12	-1.8769933E+0	259.94086E-6
168.05612E-12	-209.20722E-15	0.0000000E+0	-16.812523E-9	-2.3149600E+0	50.164671E-12	-2.1033301E+0	204.72570E-6	-240.35429E-15	0.0000000E+0	-16.812523E-9	-134.41922E-3	49.581391E-12	-2.1045203E+0	235.22438E-6
165.81164E-12	-236.21613E-15	0.0000000E+0	-16.814766E-9	407.57018E-3	49.610746E-12	-1.8747501E+0	210.67336E-6	-240.55736E-15	0.0000000E+0	-16.814766E-9	519.82296E-3	46.158043E-12	-2.0167904E+0	268.60085E-6
163.56716E-12	-252.25506E-15	0.0000000E+0	-16.817012E-9	-1.2373940E+0	43.090035E-12	-2.0642080E+0	304.41317E-6	-237.75572E-15	0.0000000E+0	-16.817012E-9	6.6624980E+0	46.271743E-12	-1.5914387E+0	247.80390E-6
161.32268E-12	-251.68135E-15	0.0000000E+0	-16.819255E-9	-1.2968237E+0	49.316360E-12	-2.1209309E+0	245.90688E-6	-219.79307E-15	0.0000000E+0	-16.819255E-9	-1.3269731E+0	48.055879E-12	-2.3736680E+0	225.25618E-6
159.07820E-12	-234.13376E-15	0.0000000E+0	-16.821501E-9	-4.0941987E+0	52.210274E-12	-2.4260335E+0	207.96040E-6	-234.68375E-15	0.0000000E+0	-16.821501E-9	-4.4298148E+0	42.140045E-12	-2.5647314E+0	265.29428E-6
156.83371E-12	-198.99917E-15	0.0000000E+0	-16.823744E-9	422.69522E-3	51.950565E-12	-2.0901532E+0	200.83897E-6	-233.11328E-15	0.0000000E+0	-16.823744E-9	-831.90602E-3	44.858034E-12	-2.1949854E+0	211.32331E-6
154.58923E-12	-249.45513E-15	0.0000000E+0	-16.825989E-9	1.7209831E+0	54.177791E-12	-1.9383122E+0	167.49249E-6	-231.93586E-15	0.0000000E+0	-16.825989E-9	-537.87899E-3	48.728976E-12	-2.1982696E+0	154.13364E-6
152.34469E-12	-227.74482E-15	0.0000000E+0	-16.828235E-9	452.45275E-3	56.203660E-12	-2.0094960E+0	126.86690E-6	-236.40863E-15	0.0000000E+0	-16.828235E-9	-4.4852939E+0	49.936170E-12	-2.4497697E+0	146.26169E-6
150.10021E-12	-236.08033E-15	0.0000000E+0	-16.830478E-9	2.7100582E+0	48.308101E-12	-1.7688522E+0	204.33411E-6	-249.85916E-15	0.0000000E+0	-16.830478E-9	-3.9128463E+0	53.196406E-12	-2.2856004E+0	115.86724E-6
147.85573E-12	-236.92395E-15	0.0000000E+0	-16.832724E-9	-532.53543E-3	50.103411E-12	-2.0183191E+0	191.81597E-6	-237.51373E-15	0.0000000E+0	-16.832724E-9	-1.8233117E+0	43.499534E-12	-1.9919598E+0	217.24131E-6
145.61125E-12	-228.31051E-15	0.0000000E+0	-16.834967E-9	-1.8920912E+0	52.686092E-12	-2.1719236E+0	156.07286E-6	-231.40151E-15	0.0000000E+0	-16.834967E-9	656.69680E-3	49.089385E-12	-1.7442106E+0	139.92080E-6
143.36676E-12	-215.43535E-15	0.0000000E+0	-16.837213E-9	410.94959E-3	50.379978E-12	-2.0037546E+0	177.16999E-6	-223.61092E-15	0.0000000E+0	-16.837213E-9	3.3317828E+0	52.365810E-12	-1.5986675E+0	111.54358E-6
141.12228E-12	-237.35929E-15	0.0000000E+0	-16.839456E-9	-3.4648905E+0	56.037085E-12	-2.3636086E+0	103.21644E-6	-230.41278E-15	0.0000000E+0	-16.839456E-9	568.19141E-3	55.469466E-12	-1.9257294E+0	90.929112E-6
138.87780E-12	-244.37055E-15	0.0000000E+0	-16.841701E-9	-1.5646182E+0	48.852724E-12	-2.2546167E+0	168.51767E-6	-232.20789E-15	0.0000000E+0	-16.841701E-9	4.5007591E+0	52.503335E-12	-1.5884882E+0	136.72445E-6
136.63332E-12	-246.75081E-15	0.0000000E+0	-16.843945E-9	-3.8935010E+0	46.905920E-12	-2.5350399E+0	198.38034E-6	-230.07854E-15	0.0000000E+0	-16.843945E-9	506.95568E-3	47.626670E-12	-2.0337760E+0	188.41273E-6
134.38878E-12	-236.32528E-15	0.0000000E+0	-16.846190E-9	-120.41845E-3	53.067412E-12	-2.2688346E+0	137.65083E-6	-213.08938E-15	0.0000000E+0	-16.846190E-9	4.7877636E+0	51.803395E-12	-1.6995124E+0	142.08375E-6
132.14430E-12	-257.98610E-15	0.0000000E+0	-16.848434E-9	400.78890E-3	51.626356E-12	-2.2159359E+0	139.29434E-6	-227.73637E-15	0.0000000E+0	-16.848434E-9	2.1389539E+0	47.891541E-12	-2.0798104E+0	188.58707E-6
129.89981E-12	-232.29378E-15	0.0000000E+0	-16.850679E-9	3.1261921E+0	45.668243E-12	-1.8795482E+0	210.20656E-6	-235.06197E-15	0.0000000E+0	-16.850679E-9	-2.1037214E+0	47.929119E-12	-2.4576943E+0	180.80691E-6
127.65533E-12	-230.52659E-15	0.0000000E+0	-16.852923E-9	88.594161E-3	48.347028E-12	-2.1417007E+0	190.74637E-6	-251.68813E-15	0.0000000E+0	-16.852923E-9	1.1276143E+0	52.341454E-12	-2.1219761E+0	128.07368E-6
125.41085E-12	-249.73350E-15	0.0000000E+0	-16.855168E-9	1.5291353E+0	44.507849E-12	-1.9818388E+0	245.39337E-6	-237.94991E-15	0.0000000E+0	-16.855168E-9	1.5906235E+0	56.805775E-12	-2.1617422E+0	89.285400E-6
123.16637E-12	-240.92880E-15	0.0000000E+0	-16.857411E-9	2.4384747E+0	50.844395E-12	-1.8258486E+0	186.56692E-6	-256.99777E-15	0.0000000E+0	-16.857411E-9	-324.00784E-3	56.088762E-12	-2.3463221E+0	130.52246E-6
120.92188E-12	-227.71986E-15	0.0000000E+0	-16.859657E-9	1.5969288E+0	52.748153E-12	-1.8162816E+0	155.60539E-6	-230.14961E-15	0.0000000E+0	-16.859657E-9	2.1502969E+0	54.698364E-12	-2.1494656E+0	160.89459E-6
118.67740E-12	-243.70759E-15	0.0000000E+0	-16.861902E-9	-4.1424012E+0	49.866330E-12	-2.3968849E+0	184.95736E-6	-237.98460E-15	0.0000000E+0	-16.861902E-9	2.1869760E+0	51.670911E-12	-2.2081666E+0	206.27242E-6
116.43292E-12	-251.14278E-15	0.0000000E+0	-16.864146E-9	490.35269E-3	47.728380E-12	-2.0206556E+0	211.74258E-6	-234.39055E-15	0.0000000E+0	-16.864146E-9	-5.3813252E+0	46.414136E-12	-2.8049867E+0	262.95666E-6
114.18838E-12	-244.86430E-15	0.0000000E+0	-16.866391E-9	-3.7051210E+0	45.831405E-12	-2.4662883E+0	244.86956E-6	-267.87470E-15	0.0000000E+0	-16.866391E-9	-2.8028748E+0	46.249771E-12	-2.4557993E+0	248.41388E-6
111.94390E-12	-248.44143E-15	0.0000000E+0	-16.868634E-9	-3.8944566E+0	44.985779E-12	-2.5476575E+0	271.59721E-6	-232.32338E-15	0.0000000E+0	-16.868634E-9	-763.48287E-3	50.301489E-12	-2.2134206E+0	193.29322E-6
109.69942E-12	-228.87361E-15	0.0000000E+0	-16.870880E-9	-1.7294339E+0	46.849226E-12	-2.4400356E+0	268.93878E-6	-226.90798E-15	0.0000000E+0	-16.870880E-9	6.6947079E+0	55.675096E-12	-1.6713099E+0	149.73135E-6
107.45493E-12	-247.05246E-15	0.0000000E+0	-16.873123E-9	1.4378189E+0	53.053430E-12	-2.1969044E+0	202.37763E-6	-232.10340E-15	0.0000000E+0	-16.873123E-9	3.8520830E+0	55.010510E-12	-2.0874643E+0	173.06158E-6
105.21045E-12	-237.02676E-15	0.0000000E+0	-16.875369E-9	2.5538681E+0	59.459902E-12	-1.9766337E+0	107.61547E-6	-232.88692E-15	0.0000000E+0	-16.875369E-9	2.0037386E+0	56.264403E-12	-2.3507917E+0	183.50976E-6
102.96597E-12	-231.05839E-15	0.0000000E+0	-16.877612E-9	-6.1860790E+0	54.699949E-12	-2.8168802E+0	133.25646E-6	-237.04706E-15	0.0000000E+0	-16.877612E-9	676.20587E-3	49.064378E-12	-2.4718726E+0	268.90970E-6
100.72149E-12	-246.50754E-15	0.0000000E+0	-16.879858E-9	703.68636E-3	53.960062E-12	-2.2916822E+0	125.09178E-6	-234.17097E-15	0.0000000E+0	-16.879858E-9	-279.43608E-3	51.946353E-12	-2.5983419E+0	235.63358E-6
98.477004E-12	-241.35739E-15	0.0000000E+0	-16.882101E-9	-1.2503432E+0	49.143366E-12	-2.4351487E+0	172.76758E-6	-236.94764E-15	0.0000000E+0	-16.882101E-9	-313.23281E-3	51.844952E-12	-2.5991538E+0	247.47138E-6
96.232466E-12	-243.31795E-15	0.0000000E+0	-16.884346E-9	-2.6536598E+0	48.861679E-12	-2.6312337E+0	178.34672E-6	-243.06368E-15	0.0000000E+0	-16.884346E-9	2.1773951E+0	51.365384E-12	-2.3890588E+0	256.51298E-6
93.987984E-12	-224.59374E-15	0.0000000E+0	-16.886590E-9	1.1346167E+0	46.516905E-12	-2.3337831E+0	217.38974E-6	-249.41578E-15	0.0000000E+0	-16.886590E-9	3.8914776E+0	51.960228E-12	-2.3467517E+0	253.62018E-6
91.743502E-12	-221.24338E-15	0.0000000E+0	-16.888835E-9	-2.5869882E+0	53.403441E-12	-2.7008381E+0	139.99079E-6	-250.51451E-15	0.0000000E+0	-16.888835E-9	1.8215854E+0	46.039166E-12	-2.6016784E+0	316.34222E-6
89.499019E-12	-230.88069E-15	0.0000000E+0	-16.891081E-9	1.7397722E+0	53.136971E-12	-2.3112676E+0	127.94713E-6	-238.77788E-15	0.0000000E+0	-16.891081E-9	-1.2956181E+0	44.700035E-12	-2.8815918E+0	313.66901E-6
87.254537E-12	-233.64679E-15	0.0000000E+0	-16.893324E-9	67.373566E-3	50.299584E-12	-2.4339826E+0	156.15104E-6	-233.95817E-15	0.0000000E+0	-16.893324E-9	-1.2401679E+0	44.569064E-12	-2.8395791E+0	295.07146E-6
85.010055E-12	-228.35745E-15	0.0000000E+0	-16.895569E-9	1.3416464E+0	47.679666E-12	-2.2761672E+0	191.01413E-6	-219.68348E-15	0.0000000E+0	-16.895569E-9	-1.6973191E+0	49.640240E-12	-2.8678677E+0	231.17587E-6
82.765572E-12	-237.73415E-15	0.0000000E+0	-16.897813E-9	-8.1057825E+0	48.178284E-12	-3.1844044E+0	199.96274E-6	-247.30925E-15	0.0000000E+0	-16.897813E-9	3.4621189E+0	45.987054E-12	-2.3926706E+0	260.09849E-6
80.521090E-12	-227.23376E-15	0.0000000E+0	-16.900058E-9	-3.9651940E+0	50.752218E-12	-3.0756936E+0	169.07130E-6	-228.53727E-15	0.0000000E+0	-16.900058E-9	-2.4742148E+0	49.999234E-12	-2.9748051E+0	211.24122E-6
78.276607E-12	-249.24992E-15	0.0000000E+0	-16.902302E-9	-1.5769895E+0	46.213429E-12	-2.9444659E+0	226.87603E-6	-226.44937E-15	0.0000000E+0	-16.902302E-9	-1.0415776E+0	45.091073E-12	-2.8007023E+0	255.97480E-6
76.032070E-12	-240.17360E-15	0.0000000E+0	-16.904547E-9	5.8777671E+0	47.415259E-12	-2.2381716E+0	224.39586E-6	-222.63403E-15	0.0000000E+0	-16.904547E-9	-828.21387E-3	45.087663E-12	-2.7681992E+0	238.87340E-6
73.787587E-12	-236.59690E-15	0.0000000E+0	-16.906791E-9	3.1454740E+0	51.092141E-12	-2.2981586E+0	189.53515E-6	-238.95260E-15	0.0000000E+0	-16.906791E-9	4.0519857E+0	47.635975E-12	-2.3979692E+0	191.99801E-6
71.543105E-12	-227.68899E-15	0.0000000E+0	-16.909036E-9	-2.6203558E+0	49.834737E-12	-2.8186960E+0	196.63798E-6	-244.83594E-15	0.0000000E+0	-16.909036E-9	4.5320234E+0	53.761138E-12	-2.5295887E+0	129.83392E-6
69.298622E-12	-268.57067E-15	0.0000000E+0	-16.911279E-9	-4.8059249E+0	46.187588E-12	-3.1137993E+0	246.29585E-6	-231.87154E-15	0.0000000E+0	-16.911279E-9	3.7212861E+0	46.921633E-12	-2.7075772E+0	212.52295E-6
67.054140E-12	-243.77570E-15	0.0000000E+0	-16.913525E-9	-7.5845571E+0	46.368239E-12	-3.5406246E+0	257.10106E-6	-238.22914E-15	0.0000000E+0	-16.913525E-9	-1.0352892E+0	43.043437E-12	-3.2035542E+0	232.80007E-6
64.809658E-12	-236.21402E-15	0.0000000E+0	-16.915768E-9	-5.7830081E+0	46.949014E-12	-3.5309145E+0	265.45659E-6	-239.28093E-15	0.0000000E+0	-16.915768E-9	304.91504E-3	47.928272E-12	-3.0359852E+0	163.82127E-6
62.565175E-12	-242.25221E-15	0.0000000E+0	-16.918014E-9	2.0343254E+0	49.901163E-12	-2.9437296E+0	237.69584E-6	-221.93426E-15	0.0000000E+0	-16.918014E-9	944.13775E-3	49.716019E-12	-2.9860275E+0	140.96526E-6
60.320693E-12	-239.90242E-15	0.0000000E+0	-16.920257E-9	2.0056136E+0	56.706518E-12	-2.8598616E+0	149.01116E-6	-241.33327E-15	0.0000000E+0	-16.920257E-9	3.3006454E+0	53.401641E-12	-2.8581026E+0	103.73224E-6
58.076155E-12	-234.77387E-15	0.0000000E+0	-16.922503E-9	2.0675864E+0	53.859896E-12	-2.8406205E+0	155.14776E-6	-231.01524E-15	0.0000000E+0	-16.922503E-9	3.4316201E+0	54.364048E-12	-2.9012210E+0	108.72961E-6
55.831673E-12	-247.13833E-15	0.0000000E+0	-16.924748E-9	2.3931234E+0	49.046173E-12	-2.7336423E+0	207.01085E-6	-242.03008E-15	0.0000000E+0	-16.924748E-9	-1.6597722E+0	54.448539E-12	-3.3995326E+0	123.62811E-6
53.587190E-12	-237.55517E-15	0.0000000E+0	-16.926991E-9	-2.0938671E+0	47.255033E-12	-3.0673707E+0	232.57501E-6	-244.30794E-15	0.0000000E+0	-16.926991E-9	4.2649655E+0	52.953478E-12	-2.9063280E+0	155.99352E-6
51.342708E-12	-250.13458E-15	0.0000000E+0	-16.929237E-9	16.686810E-3	49.551831E-12	-2.9579074E+0	208.98684E-6	-254.55744E-15	0.0000000E+0	-16.929237E-9	-2.9117124E+0	52.360432E-12	-3.5705621E+0	174.34986E-6
49.098225E-12	-213.74177E-15	0.0000000E+0	-16.931480E-9	-5.3982821E+0	51.545931E-12	-3.5062706E+0	184.59286E-6	-232.59671E-15	0.0000000E+0	-16.931480E-9	-252.18925E-3	53.145856E-12	-3.3004887E+0	172.62308E-6
46.853743E-12	-201.50041E-15	0.0000000E+0	-16.933726E-9	608.44499E-3	45.241050E-12	-3.0038476E+0	259.13835E-6	-230.76010E-15	0.0000000E+0	-16.933726E-9	2.7078984E+0	51.278211E-12	-3.0227735E+0	202.55434E-6
44.609261E-12	-218.00133E-15	0.0000000E+0	-16.935969E-9	172.97676E-3	48.641452E-12	-3.0690622E+0	237.65887E-6	-239.11212E-15	0.0000000E+0	-16.935969E-9	2.5145946E+0	50.655417E-12	-3.1871238E+0	211.14582E-6
42.364778E-12	-234.09397E-15	0.0000000E+0	-16.938214E-9	2.2546909E+0	50.068109E-12	-2.8369453E+0	220.15414E-6	-239.11212E-15	0.0000000E+0	-16.938214E-9	-3.1475642E+0	47.638126E-12	-3.6457138E+0	238.51285E-6
40.120296E-12	-243.45586E-15	0.0000000E+0	-16.940458E-9	2.8400633E+0	45.641133E-12	-2.7183332E+0	277.07705E-6	-236.90026E-15	0.0000000E+0	-16.940458E-9	-910.66259E-3	48.053610E-12	-3.4108248E+0	227.33807E-6
37.875758E-12	-224.97282E-15	0.0000000E+0	-16.942703E-9	2.0625820E+0	53.589543E-12	-2.7208149E+0	190.51158E-6	-232.08096E-15	0.0000000E+0	-16.942703E-9	-4.3716989E+0	44.736256E-12	-3.6331270E+0	252.86883E-6
35.631276E-12	-232.50575E-15	0.0000000E+0	-16.944947E-9	-1.1929280E+0	50.879276E-12	-3.0065923E+0	207.46046E-6	-231.12862E-15	0.0000000E+0	-16.944947E-9	5.2857337E+0	41.953808E-12	-2.7817225E+0	253.12259E-6
33.386793E-12	-233.18096E-15	0.0000000E+0	-16.947192E-9	1.7685920E+0	49.593180E-12	-2.6994851E+0	220.32775E-6	-221.87039E-15	0.0000000E+0	-16.947192E-9	4.7357426E+0	50.805374E-12	-2.9848182E+0	144.79533E-6
31.142311E-12	-225.86467E-15	0.0000000E+0	-16.949436E-9	-7.1219440E+0	48.519279E-12	-3.5869060E+0	241.07654E-6	-233.77708E-15	0.0000000E+0	-16.949436E-9	-460.30813E-3	49.750978E-12	-3.4479756E+0	162.02033E-6
28.897829E-12	-242.55893E-15	0.0000000E+0	-16.951681E-9	1.6101682E+0	55.471863E-12	-2.9146712E+0	156.74965E-6	-251.55022E-15	0.0000000E+0	-16.951681E-9	4.3233733E+0	51.061651E-12	-3.0890532E+0	148.48718E-6
26.653346E-12	-244.65656E-15	0.0000000E+0	-16.953924E-9	-752.84743E-3	48.128231E-12	-3.1001992E+0	224.00012E-6	-231.37444E-15	0.0000000E+0	-16.953924E-9	3.6314943E+0	53.502983E-12	-3.2594647E+0	131.75097E-6
24.408864E-12	-235.82650E-15	0.0000000E+0	-16.956170E-9	-3.2544768E+0	51.058591E-12	-3.3817592E+0	194.32265E-6	-240.82431E-15	0.0000000E+0	-16.956170E-9	1.9417330E+0	50.830753E-12	-3.5069702E+0	175.28741E-6
22.164381E-12	-222.18981E-15	0.0000000E+0	-16.958415E-9	-664.08294E-3	45.901127E-12	-3.2153215E+0	254.19352E-6	-250.51367E-15	0.0000000E+0	-16.958415E-9	-742.17451E-3	52.612567E-12	-3.7362592E+0	158.09193E-6
19.919844E-12	-242.17393E-15	0.0000000E+0	-16.960659E-9	-2.2507949E+0	46.221561E-12	-3.4054296E+0	265.32364E-6	-244.88883E-15	0.0000000E+0	-16.960659E-9	-2.4201052E+0	46.977314E-12	-3.8546996E+0	213.16721E-6
17.675361E-12	-239.08081E-15	0.0000000E+0	-16.962904E-9	2.1063440E+0	44.050357E-12	-2.9991491E+0	304.78751E-6	-236.20767E-15	0.0000000E+0	-16.962904E-9	3.6477046E+0	50.226160E-12	-3.3459935E+0	176.39170E-6
15.430879E-12	-231.98576E-15	0.0000000E+0	-16.965148E-9	-2.2414944E+0	49.878126E-12	-3.4559135E+0	257.28100E-6	-234.81109E-15	0.0000000E+0	-16.965148E-9	254.59179E-3	51.495055E-12	-3.7261219E+0	163.03900E-6
13.186396E-12	-228.35111E-15	0.0000000E+0	-16.967393E-9	912.64701E-3	54.990481E-12	-3.1832817E+0	191.05611E-6	-240.34496E-15	0.0000000E+0	-16.967393E-9	5.0798125E+0	57.024965E-12	-3.3545697E+0	120.76111E-6
10.941914E-12	-248.07885E-15	0.0000000E+0	-16.969636E-9	-782.00907E-3	55.349759E-12	-3.2949538E+0	169.02016E-6	-246.57438E-15	0.0000000E+0	-16.969636E-9	318.56140E-3	51.256090E-12	-3.8694870E+0	195.81128E-6
8.6974317E-12	-258.93759E-15	0.0000000E+0	-16.971882E-9	-2.4232912E+0	52.559328E-12	-3.5133133E+0	183.80147E-6	-228.66079E-15	0.0000000E+0	-16.971882E-9	-1.8691777E+0	48.769783E-12	-3.9969730E+0	225.48655E-6
6.4529493E-12	-252.97556E-15	0.0000000E+0	-16.974125E-9	-4.2714820E+0	57.389947E-12	-3.7590013E+0	108.65032E-6	-234.36052E-15	0.0000000E+0	-16.974125E-9	4.1491394E+0	50.530004E-12	-3.5301473E+0	209.46554E-6
4.2084669E-12	-231.31055E-15	0.0000000E+0	-16.976371E-9	2.8345697E+0	54.231331E-12	-3.1167140E+0	120.91189E-6	-246.80537E-15	0.0000000E+0	-16.976371E-9	6.3314099E+0	46.372260E-12	-3.4416063E+0	246.68823E-6
1.9639845E-12	-247.69851E-15	0.0000000E+0	-16.978614E-9	-4.5050368E+0	50.425927E-12	-3.8157079E+0	154.85600E-6	-250.33345E-15	0.0000000E+0	-16.978614E-9	504.06277E-3	53.399098E-12	-4.0718822E+0	168.39575E-6
-280.55336E-15	-242.63637E-15	0.0000000E+0	-16.980859E-9	200.82605E-3	50.373521E-12	-3.4742067E+0	154.86036E-6	-226.21794E-15	0.0000000E+0	-16.980859E-9	-315.14847E-3	49.708838E-12	-4.1456194E+0	214.89490E-6
-2.5250357E-12	-234.47433E-15	0.0000000E+0	-16.983103E-9	-2.2923026E+0	47.120662E-12	-3.7034233E+0	195.90152E-6	-233.18942E-15	0.0000000E+0	-16.983103E-9	-2.5749354E+0	48.630697E-12	-4.2736583E+0	224.99649E-6
-4.7695181E-12	-246.00406E-15	0.0000000E+0	-16.985348E-9	-6.0984211E+0	49.891272E-12	-4.1918797E+0	171.42596E-6	-239.22382E-15	0.0000000E+0	-16.985348E-9	3.1268911E+0	51.813966E-12	-3.7965536E+0	186.86953E-6
-7.0140005E-12	-234.22047E-15	0.0000000E+0	-16.987594E-9	-2.9486935E+0	49.564550E-12	-4.0072002E+0	179.32068E-6	-235.26125E-15	0.0000000E+0	-16.987594E-9	485.28636E-3	49.081458E-12	-4.0988755E+0	222.63145E-6
-9.2584829E-12	-250.52085E-15	0.0000000E+0	-16.989837E-9	1.1829195E+0	52.059614E-12	-3.6794038E+0	140.86667E-6	-232.26923E-15	0.0000000E+0	-16.989837E-9	-2.6389830E+0	44.293430E-12	-4.2661510E+0	255.09624E-6
-11.502965E-12	-247.60584E-15	0.0000000E+0	-16.992082E-9	2.2748263E+0	45.690535E-12	-3.5168314E+0	215.33773E-6	-238.27400E-15	0.0000000E+0	-16.992082E-9	3.6064465E+0	45.448170E-12	-3.8290536E+0	223.19100E-6
-13.747448E-12	-225.94674E-15	0.0000000E+0	-16.994326E-9	1.5118827E+0	45.946646E-12	-3.5122259E+0	231.91163E-6	-235.54726E-15	0.0000000E+0	-16.994326E-9	-2.3217828E+0	49.108814E-12	-4.2870841E+0	180.02681E-6
-15.991930E-12	-241.37940E-15	0.0000000E+0	-16.996571E-9	-2.0993183E+0	49.634710E-12	-3.8329618E+0	200.89732E-6	-234.68841E-15	0.0000000E+0	-16.996571E-9	158.78503E-6	49.515222E-12	-4.1009264E+0	171.81106E-6
-18.236468E-12	-238.10351E-15	0.0000000E+0	-16.998815E-9	-329.20828E-3	58.660729E-12	-3.7343843E+0	83.670275E-6	-242.48870E-15	0.0000000E+0	-16.998815E-9	1.9783388E+0	48.916898E-12	-3.9858272E+0	179.38126E-6
-20.480950E-12	-232.23581E-15	0.0000000E+0	-17.001060E-9	-3.1575215E+0	52.665282E-12	-4.0173864E+0	129.61500E-6	-251.66655E-15	0.0000000E+0	-17.001060E-9	4.3376112E+0	49.236532E-12	-3.8119984E+0	164.05035E-6
-22.725433E-12	-235.69617E-15	0.0000000E+0	-17.003304E-9	-4.3903813E+0	50.333345E-12	-4.2740121E+0	146.61544E-6	-239.30462E-15	0.0000000E+0	-17.003304E-9	1.6347928E+0	62.085358E-12	-4.1970468E+0	51.384686E-6
-24.969915E-12	-235.68390E-15	0.0000000E+0	-17.005549E-9	-2.6902702E+0	48.940494E-12	-4.2736163E+0	169.35433E-6	-240.82093E-15	0.0000000E+0	-17.005549E-9	1.8225229E+0	49.947574E-12	-4.2201223E+0	205.63054E-6
-27.214397E-12	-230.57226E-15	0.0000000E+0	-17.007793E-9	-1.6888080E+0	52.265713E-12	-4.2025542E+0	129.44959E-6	-226.57967E-15	0.0000000E+0	-17.007793E-9	369.17675E-3	45.250088E-12	-4.3601646E+0	250.44251E-6
-29.458880E-12	-231.03682E-15	0.0000000E+0	-17.010038E-9	-1.6519754E+0	52.267312E-12	-4.2830815E+0	118.82393E-6	-225.78810E-15	0.0000000E+0	-17.010038E-9	1.8468152E+0	51.101946E-12	-4.2848105E+0	181.23389E-6
-31.703362E-12	-242.84323E-15	0.0000000E+0	-17.012281E-9	1.1360940E+0	49.680829E-12	-4.0403833E+0	141.14840E-6	-238.87264E-15	0.0000000E+0	-17.012281E-9	396.06372E-3	45.845123E-12	-4.3877010E+0	238.70141E-6
-33.947845E-12	-242.08128E-15	0.0000000E+0	-17.014527E-9	-2.2740455E+0	43.906892E-12	-4.3661957E+0	216.81697E-6	-239.80850E-15	0.0000000E+0	-17.014527E-9	2.5822446E+0	47.646876E-12	-4.2396650E+0	196.95662E-6
-36.192327E-12	-255.42562E-15	0.0000000E+0	-17.016770E-9	-1.8414629E+0	46.397646E-12	-4.3696408E+0	210.00026E-6	-250.90756E-15	0.0000000E+0	-17.016770E-9	287.88915E-3	42.232245E-12	-4.4806528E+0	249.33473E-6
-38.436865E-12	-243.04463E-15	0.0000000E+0	-17.019016E-9	2.7655804E+0	55.745894E-12	-3.9852526E+0	100.63539E-6	-245.59453E-15	0.0000000E+0	-17.019016E-9	-1.2073131E+0	44.700757E-12	-4.5883856E+0	192.87472E-6
-40.681347E-12	-241.88412E-15	0.0000000E+0	-17.021261E-9	-3.0315983E+0	51.000270E-12	-4.4680648E+0	139.42199E-6	-252.74794E-15	0.0000000E+0	-17.021261E-9	-1.3855160E+0	47.422594E-12	-4.5479956E+0	155.70699E-6
-42.925830E-12	-237.53658E-15	0.0000000E+0	-17.023504E-9	1.7323704E+0	52.548181E-12	-4.0473480E+0	117.17685E-6	-237.64191E-15	0.0000000E+0	-17.023504E-9	145.02271E-3	45.273878E-12	-4.4263778E+0	159.85065E-6
-45.170312E-12	-224.81036E-15	0.0000000E+0	-17.025750E-9	-2.3569019E+0	44.417286E-12	-4.4258232E+0	207.46897E-6	-252.61382E-15	0.0000000E+0	-17.025750E-9	3.6544504E+0	55.151550E-12	-4.1816769E+0	53.956217E-6
-47.414794E-12	-236.19965E-15	0.0000000E+0	-17.027993E-9	-3.5183337E+0	50.886205E-12	-4.6510458E+0	155.91466E-6	-229.01958E-15	0.0000000E+0	-17.027993E-9	1.9989452E+0	54.392879E-12	-4.4162483E+0	82.562285E-6
-49.659277E-12	-243.40680E-15	0.0000000E+0	-17.030239E-9	-7.0715890E+0	51.370356E-12	-5.0720043E+0	141.56965E-6	-212.55503E-15	0.0000000E+0	-17.030239E-9	8.5111265E+0	54.347828E-12	-3.9883931E+0	96.961434E-6
-51.903759E-12	-227.99953E-15	0.0000000E+0	-17.032482E-9	1.6179413E+0	55.689221E-12	-4.4335275E+0	77.515273E-6	-226.16124E-15	0.0000000E+0	-17.032482E-9	484.21109E-3	54.806038E-12	-4.8487077E+0	109.06055E-6
-54.148241E-12	-223.00170E-15	0.0000000E+0	-17.034727E-9	2.7460790E+0	50.111637E-12	-4.2555904E+0	130.59360E-6	-243.30356E-15	0.0000000E+0	-17.034727E-9	-176.66790E-3	53.157034E-12	-4.8639402E+0	141.20317E-6
-56.392724E-12	-234.10879E-15	0.0000000E+0	-17.036971E-9	-2.1192856E+0	48.134895E-12	-4.6966839E+0	154.77306E-6	-225.21820E-15	0.0000000E+0	-17.036971E-9	-879.02343E-3	51.461817E-12	-4.9045038E+0	175.81451E-6
-58.637262E-12	-240.42153E-15	0.0000000E+0	-17.039216E-9	778.73921E-3	39.894251E-12	-4.4724560E+0	266.02510E-6	-231.06135E-15	0.0000000E+0	-17.039216E-9	2.4729135E+0	48.741698E-12	-4.6394730E+0	204.44895E-6
-60.881744E-12	-232.97323E-15	0.0000000E+0	-17.041460E-9	-7.9856858E+0	40.280560E-12	-5.3477354E+0	302.87518E-6	-222.97631E-15	0.0000000E+0	-17.041460E-9	417.10588E-3	46.718549E-12	-4.8325529E+0	213.52882E-6
-63.126226E-12	-253.74090E-15	0.0000000E+0	-17.043705E-9	-2.7215269E+0	47.256140E-12	-5.0690045E+0	249.19631E-6	-237.51753E-15	0.0000000E+0	-17.043705E-9	3.6889622E+0	47.018559E-12	-4.6495147E+0	203.14635E-6
-65.370709E-12	-233.04094E-15	0.0000000E+0	-17.045949E-9	605.02332E-3	54.494988E-12	-4.8014302E+0	166.61512E-6	-248.57216E-15	0.0000000E+0	-17.045949E-9	5.6531577E+0	49.994127E-12	-4.5658188E+0	162.33258E-6
-67.615191E-12	-246.27823E-15	0.0000000E+0	-17.048194E-9	-893.93258E-3	53.126916E-12	-4.9500170E+0	166.29371E-6	-239.67227E-15	0.0000000E+0	-17.048194E-9	-845.11781E-3	50.058520E-12	-5.2352381E+0	165.55462E-6
-69.859674E-12	-243.31920E-15	0.0000000E+0	-17.050438E-9	2.9401193E+0	50.188340E-12	-4.6204967E+0	199.02550E-6	-230.98773E-15	0.0000000E+0	-17.050438E-9	-1.9237819E+0	46.036841E-12	-5.2873340E+0	203.11074E-6
-72.104156E-12	-239.90497E-15	0.0000000E+0	-17.052683E-9	-111.41667E-3	48.957491E-12	-4.8068948E+0	204.55600E-6	-218.44598E-15	0.0000000E+0	-17.052683E-9	3.4319000E+0	51.724482E-12	-4.8132429E+0	136.22832E-6
-74.348638E-12	-229.98758E-15	0.0000000E+0	-17.054928E-9	-602.79000E-3	51.956269E-12	-4.8513627E+0	173.25870E-6	-237.87884E-15	0.0000000E+0	-17.054928E-9	8.4408731E+0	50.132700E-12	-4.5833783E+0	157.38572E-6
-76.593176E-12	-248.32889E-15	0.0000000E+0	-17.057172E-9	-3.8689194E+0	50.100160E-12	-5.2108874E+0	192.73353E-6	-241.94801E-15	0.0000000E+0	-17.057172E-9	1.2185335E+0	54.076653E-12	-5.3553481E+0	121.40842E-6
-78.837659E-12	-233.56639E-15	0.0000000E+0	-17.059417E-9	-3.6453013E+0	40.765866E-12	-5.2690835E+0	308.54295E-6	-222.63319E-15	0.0000000E+0	-17.059417E-9	2.9977856E+0	53.401304E-12	-5.2468762E+0	137.33328E-6
-81.082141E-12	-244.14674E-15	0.0000000E+0	-17.061661E-9	-6.6367621E+0	49.719437E-12	-5.7412977E+0	232.33278E-6	-234.16758E-15	0.0000000E+0	-17.061661E-9	3.8721268E+0	53.275977E-12	-5.2634783E+0	151.94927E-6
-83.326623E-12	-240.49938E-15	0.0000000E+0	-17.063906E-9	1.6439708E+0	52.386546E-12	-5.0656638E+0	201.04779E-6	-233.28420E-15	0.0000000E+0	-17.063906E-9	5.9549184E+0	55.583781E-12	-5.1901951E+0	143.88494E-6
-85.571106E-12	-218.01360E-15	0.0000000E+0	-17.066149E-9	-29.304985E-3	47.219617E-12	-5.1387858E+0	260.35591E-6	-249.63408E-15	0.0000000E+0	-17.066149E-9	-360.24219E-3	48.519203E-12	-5.8319488E+0	229.22452E-6
-87.815588E-12	-243.35856E-15	0.0000000E+0	-17.068395E-9	-3.6788731E+0	49.857018E-12	-5.5400844E+0	235.44171E-6	-233.98270E-15	0.0000000E+0	-17.068395E-9	782.47786E-3	52.598467E-12	-5.7277036E+0	187.86742E-6
-90.060071E-12	-247.75307E-15	0.0000000E+0	-17.070638E-9	-627.89935E-3	47.689557E-12	-5.3071232E+0	259.14080E-6	-228.64176E-15	0.0000000E+0	-17.070638E-9	1.1363515E+0	50.652104E-12	-5.7404366E+0	213.56012E-6
-92.304553E-12	-238.18894E-15	0.0000000E+0	-17.072884E-9	-1.5185483E+0	46.141278E-12	-5.3941836E+0	287.06627E-6	-239.86943E-15	0.0000000E+0	-17.072884E-9	-3.6476288E+0	48.486298E-12	-6.1231623E+0	238.72139E-6
-94.549035E-12	-233.57824E-15	0.0000000E+0	-17.075127E-9	-435.78389E-3	56.243864E-12	-5.3318129E+0	175.80527E-6	-251.33739E-15	0.0000000E+0	-17.075127E-9	1.8506212E+0	43.727806E-12	-5.6543441E+0	269.45968E-6
-96.793573E-12	-249.34511E-15	0.0000000E+0	-17.077372E-9	800.33535E-3	54.956470E-12	-5.2403955E+0	171.12242E-6	-255.77422E-15	0.0000000E+0	-17.077372E-9	5.1147428E+0	48.552096E-12	-5.4572792E+0	206.84337E-6
-99.038056E-12	-225.73859E-15	0.0000000E+0	-17.079616E-9	-4.5833912E+0	58.298054E-12	-5.7305231E+0	108.48060E-6	-237.39019E-15	0.0000000E+0	-17.079616E-9	3.1470218E+0	49.221290E-12	-5.7541423E+0	194.09056E-6
-101.28254E-12	-222.38865E-15	0.0000000E+0	-17.081861E-9	-232.25361E-3	49.522227E-12	-5.4384108E+0	188.74330E-6	-240.85730E-15	0.0000000E+0	-17.081861E-9	-644.20348E-3	49.554319E-12	-6.0960507E+0	192.51430E-6
-103.52702E-12	-227.76049E-15	0.0000000E+0	-17.084107E-9	-2.3953667E+0	51.600002E-12	-5.6551189E+0	167.75048E-6	-235.73764E-15	0.0000000E+0	-17.084107E-9	2.5609267E+0	48.429080E-12	-5.8274331E+0	207.48177E-6
-105.77150E-12	-232.70670E-15	0.0000000E+0	-17.086350E-9	-3.5561721E+0	54.331921E-12	-5.8593059E+0	121.99646E-6	-248.95504E-15	0.0000000E+0	-17.086350E-9	2.3696866E+0	50.846299E-12	-5.9508352E+0	168.91044E-6
-108.01599E-12	-228.01390E-15	0.0000000E+0	-17.088595E-9	-3.1106927E+0	52.543182E-12	-5.9036551E+0	134.07772E-6	-243.01798E-15	0.0000000E+0	-17.088595E-9	4.3522477E+0	56.629118E-12	-5.8286276E+0	130.04559E-6
-110.26047E-12	-228.27115E-15	0.0000000E+0	-17.090839E-9	-4.3114185E+0	45.018978E-12	-6.1214342E+0	221.19573E-6	-235.64497E-15	0.0000000E+0	-17.090839E-9	3.5328913E+0	50.630326E-12	-6.0549259E+0	205.77741E-6
-112.50495E-12	-243.54217E-15	0.0000000E+0	-17.093084E-9	-1.7547792E+0	45.206099E-12	-6.0144143E+0	241.09855E-6	-226.88725E-15	0.0000000E+0	-17.093084E-9	6.8957391E+0	54.124934E-12	-5.8537431E+0	177.00699E-6
-114.74949E-12	-251.68601E-15	0.0000000E+0	-17.095328E-9	622.15751E-3	52.885127E-12	-5.8251729E+0	153.21965E-6	-234.85256E-15	0.0000000E+0	-17.095328E-9	5.2061048E+0	51.417200E-12	-6.2094288E+0	211.28621E-6
-116.99397E-12	-227.70040E-15	0.0000000E+0	-17.097573E-9	2.1882422E+0	49.384111E-12	-5.6211162E+0	188.24890E-6	-227.29298E-15	0.0000000E+0	-17.097573E-9	2.6809194E+0	54.559090E-12	-6.5566592E+0	199.15831E-6
-119.23845E-12	-234.74045E-15	0.0000000E+0	-17.099817E-9	-3.4476669E+0	50.093537E-12	-6.1624799E+0	181.26781E-6	-231.78903E-15	0.0000000E+0	-17.099817E-9	-134.85368E-3	50.996877E-12	-6.8189750E+0	240.32252E-6
-121.48293E-12	-234.41213E-15	0.0000000E+0	-17.102062E-9	-1.3605213E+0	49.083779E-12	-6.0519209E+0	195.02510E-6	-259.57136E-15	0.0000000E+0	-17.102062E-9	4.1605392E+0	52.688368E-12	-6.5045757E+0	229.36448E-6
-123.72742E-12	-212.84781E-15	0.0000000E+0	-17.104306E-9	-568.05205E-3	49.661372E-12	-6.0300884E+0	185.57151E-6	-230.09378E-15	0.0000000E+0	-17.104306E-9	3.3042028E+0	51.753331E-12	-6.7281494E+0	240.04967E-6
-125.97190E-12	-228.59226E-15	0.0000000E+0	-17.106551E-9	-447.93594E-3	47.879294E-12	-6.0594258E+0	208.30757E-6	-235.71943E-15	0.0000000E+0	-17.106551E-9	2.0975039E+0	46.801445E-12	-6.8919578E+0	303.07306E-6
-128.21638E-12	-205.30389E-15	0.0000000E+0	-17.108794E-9	1.4745060E+0	47.185273E-12	-5.8422141E+0	225.64764E-6	-252.91634E-15	0.0000000E+0	-17.108794E-9	-1.3367889E+0	45.679158E-12	-7.2098088E+0	295.27472E-6
-130.46086E-12	-219.65853E-15	0.0000000E+0	-17.111040E-9	-5.8450356E+0	44.455366E-12	-6.5579643E+0	270.26315E-6	-240.71221E-15	0.0000000E+0	-17.111040E-9	1.1095078E+0	51.860339E-12	-6.9990349E+0	221.69265E-6
-132.70535E-12	-238.19404E-15	0.0000000E+0	-17.113283E-9	-3.8551013E+0	46.236844E-12	-6.5338621E+0	274.31690E-6	-260.37817E-15	0.0000000E+0	-17.113283E-9	-923.25836E-3	45.941827E-12	-7.1701941E+0	281.19152E-6
-134.94988E-12	-246.20291E-15	0.0000000E+0	-17.115529E-9	-3.6307521E+0	49.954655E-12	-6.5812526E+0	236.57280E-6	-240.68258E-15	0.0000000E+0	-17.115529E-9	2.8654757E+0	51.610282E-12	-6.8662515E+0	212.88759E-6
-137.19437E-12	-235.27225E-15	0.0000000E+0	-17.117774E-9	-7.0844030E+0	47.583791E-12	-7.0789790E+0	266.94656E-6	-231.00253E-15	0.0000000E+0	-17.117774E-9	2.1998672E+0	48.196280E-12	-6.9890585E+0	254.80596E-6
-139.43885E-12	-229.50655E-15	0.0000000E+0	-17.120017E-9	-4.8430052E+0	51.597143E-12	-7.0342364E+0	226.27597E-6	-243.07680E-15	0.0000000E+0	-17.120017E-9	6.8363099E+0	52.407759E-12	-6.6918931E+0	203.66321E-6
-141.68333E-12	-237.60426E-15	0.0000000E+0	-17.122263E-9	-5.4751925E+0	48.571206E-12	-7.2532020E+0	257.67952E-6	-237.96769E-15	0.0000000E+0	-17.122263E-9	6.1900749E+0	57.766618E-12	-6.9097686E+0	165.49486E-6
-143.92781E-12	-254.46735E-15	0.0000000E+0	-17.124506E-9	-6.1728582E+0	47.090849E-12	-7.4209204E+0	281.09641E-6	-246.14918E-15	0.0000000E+0	-17.124506E-9	6.9636679E+0	51.543582E-12	-7.0643106E+0	249.38234E-6
-146.17230E-12	-200.38898E-15	0.0000000E+0	-17.126752E-9	-4.6613655E+0	57.501327E-12	-7.4488611E+0	160.01394E-6	-260.51185E-15	0.0000000E+0	-17.126752E-9	6.1027565E+0	49.895404E-12	-7.3157849E+0	267.06385E-6
-148.41678E-12	-225.36629E-15	0.0000000E+0	-17.128995E-9	-6.2854509E+0	49.621290E-12	-7.7941933E+0	232.12950E-6	-246.58072E-15	0.0000000E+0	-17.128995E-9	3.1610258E+0	51.821641E-12	-7.7147026E+0	249.80260E-6
-150.66126E-12	-239.40488E-15	0.0000000E+0	-17.131240E-9	-6.3402467E+0	46.961525E-12	-7.9250703E+0	274.31580E-6	-221.10631E-15	0.0000000E+0	-17.131240E-9	4.0128040E+0	50.678333E-12	-7.7443476E+0	263.40934E-6
-152.90580E-12	-242.57416E-15	0.0000000E+0	-17.133484E-9	2.4736085E+0	47.359911E-12	-7.2226334E+0	272.26808E-6	-255.86773E-15	0.0000000E+0	-17.133484E-9	3.2277541E+0	50.103491E-12	-7.9331231E+0	275.53135E-6
-155.15028E-12	-224.17658E-15	0.0000000E+0	-17.135729E-9	-2.3716104E+0	44.825001E-12	-7.6155729E+0	322.20565E-6	-251.39705E-15	0.0000000E+0	-17.135729E-9	2.3774917E+0	46.076851E-12	-8.1019754E+0	314.41616E-6
-157.39476E-12	-246.96868E-15	0.0000000E+0	-17.137973E-9	-2.6036034E+0	51.918914E-12	-7.7291551E+0	250.45793E-6	-247.06810E-15	0.0000000E+0	-17.137973E-9	3.0412054E+0	48.572941E-12	-8.1250515E+0	273.35039E-6
-159.63925E-12	-242.39944E-15	0.0000000E+0	-17.140218E-9	-3.1003942E+0	52.965993E-12	-7.8551607E+0	226.57964E-6	-226.91899E-15	0.0000000E+0	-17.140218E-9	5.1554923E+0	51.739238E-12	-8.0485573E+0	238.48281E-6
-161.88373E-12	-225.27574E-15	0.0000000E+0	-17.142462E-9	-1.3016070E+0	50.584741E-12	-7.7843113E+0	243.97534E-6	-219.71648E-15	0.0000000E+0	-17.142462E-9	-1.6666062E+0	50.163741E-12	-8.7060051E+0	264.06985E-6
-164.12821E-12	-252.17214E-15	0.0000000E+0	-17.144707E-9	-5.8304124E+0	47.632034E-12	-8.2953081E+0	284.72632E-6	-237.91776E-15	0.0000000E+0	-17.144707E-9	2.8556325E+0	47.352351E-12	-8.3012829E+0	284.39378E-6
-166.37269E-12	-235.81549E-15	0.0000000E+0	-17.146951E-9	1.4834939E+0	49.813334E-12	-7.6931624E+0	267.25806E-6	-235.09794E-15	0.0000000E+0	-17.146951E-9	-141.39405E-3	51.098941E-12	-8.6165571E+0	240.03627E-6
-168.61718E-12	-238.18683E-15	0.0000000E+0	-17.149196E-9	451.59554E-3	51.495953E-12	-7.7816744E+0	243.63874E-6	-237.61315E-15	0.0000000E+0	-17.149196E-9	3.9770429E+0	48.592557E-12	-8.2898293E+0	270.56647E-6
-170.86166E-12	-235.09414E-15	0.0000000E+0	-17.151441E-9	-5.5711889E+0	49.952820E-12	-8.3739529E+0	260.95120E-6	-246.67253E-15	0.0000000E+0	-17.151441E-9	8.4011526E+0	49.822126E-12	-8.0780382E+0	252.96572E-6
-173.10620E-12	-239.10195E-15	0.0000000E+0	-17.153685E-9	-8.9219370E+0	49.804629E-12	-8.9195719E+0	260.71494E-6	-225.24613E-15	0.0000000E+0	-17.153685E-9	5.5347466E+0	56.295506E-12	-8.5224266E+0	192.19694E-6
-175.35068E-12	-247.63164E-15	0.0000000E+0	-17.155930E-9	-2.2342901E+0	53.939457E-12	-8.4273682E+0	208.06686E-6	-236.22884E-15	0.0000000E+0	-17.155930E-9	5.1377640E+0	55.721580E-12	-8.6946859E+0	224.14608E-6
-177.59516E-12	-226.94182E-15	0.0000000E+0	-17.158174E-9	-2.6633606E+0	49.315978E-12	-8.5469370E+0	253.85691E-6	-245.04368E-15	0.0000000E+0	-17.158174E-9	5.1221275E+0	51.390111E-12	-8.8631744E+0	279.00058E-6
-179.83964E-12	-223.23312E-15	0.0000000E+0	-17.160419E-9	-3.2277191E+0	46.459950E-12	-8.6628256E+0	288.65493E-6	-221.69988E-15	0.0000000E+0	-17.160419E-9	4.1888871E+0	54.246527E-12	-9.0470629E+0	259.65049E-6
-182.08413E-12	-248.15246E-15	0.0000000E+0	-17.162662E-9	-2.6253157E+0	48.627952E-12	-8.7202396E+0	279.18915E-6	-235.83834E-15	0.0000000E+0	-17.162662E-9	3.0690198E+0	55.868199E-12	-9.3042440E+0	263.45992E-6
-184.32861E-12	-253.49595E-15	0.0000000E+0	-17.164908E-9	-5.1749468E+0	44.411190E-12	-9.0625591E+0	339.43952E-6	-232.37036E-15	0.0000000E+0	-17.164908E-9	1.2174225E+0	47.234779E-12	-9.4904451E+0	361.34847E-6
-186.57309E-12	-210.81025E-15	0.0000000E+0	-17.167151E-9	-2.0432541E+0	50.171457E-12	-8.8641071E+0	291.75967E-6	-255.32069E-15	0.0000000E+0	-17.167151E-9	801.80305E-3	49.982057E-12	-9.5849562E+0	324.15154E-6
-188.81757E-12	-212.84527E-15	0.0000000E+0	-17.169397E-9	-2.4077225E+0	55.544274E-12	-8.9458418E+0	218.22283E-6	-259.33823E-15	0.0000000E+0	-17.169397E-9	6.1426058E+0	45.519095E-12	-9.2282839E+0	365.04207E-6
-191.06211E-12	-242.50521E-15	0.0000000E+0	-17.171640E-9	-6.8017292E+0	51.978484E-12	-9.5065994E+0	246.83186E-6	-246.27696E-15	0.0000000E+0	-17.171640E-9	6.8657351E+0	43.192460E-12	-9.3855324E+0	370.92695E-6
-193.30659E-12	-252.40820E-15	0.0000000E+0	-17.173885E-9	-558.46202E-3	47.853835E-12	-9.0316057E+0	290.37797E-6	-226.74510E-15	0.0000000E+0	-17.173885E-9	7.2317300E+0	48.096881E-12	-9.5572720E+0	298.61095E-6
-195.55108E-12	-233.89006E-15	0.0000000E+0	-17.176129E-9	-3.9414530E+0	50.711341E-12	-9.3651733E+0	267.77413E-6	-237.32798E-15	0.0000000E+0	-17.176129E-9	3.0157223E+0	48.668587E-12	-10.061318E+0	289.67499E-6
-197.79556E-12	-228.16113E-15	0.0000000E+0	-17.178374E-9	-10.939125E+0	51.978959E-12	-10.199807E+0	238.22353E-6	-236.11207E-15	0.0000000E+0	-17.178374E-9	7.1364899E+0	50.257864E-12	-9.8447208E+0	273.42804E-6
-200.04004E-12	-236.24237E-15	0.0000000E+0	-17.180620E-9	-6.1044226E+0	41.305962E-12	-10.017686E+0	368.07082E-6	-231.91090E-15	0.0000000E+0	-17.180620E-9	5.3060617E+0	43.700602E-12	-10.188756E+0	331.01017E-6
-202.28452E-12	-247.77676E-15	0.0000000E+0	-17.182863E-9	-3.9409161E+0	51.639033E-12	-10.019166E+0	274.38614E-6	-234.03347E-15	0.0000000E+0	-17.182863E-9	7.8140759E+0	46.628163E-12	-10.246555E+0	280.47277E-6
-204.52900E-12	-230.52022E-15	0.0000000E+0	-17.185108E-9	-7.5383239E+0	49.692379E-12	-10.457912E+0	279.74928E-6	-239.12396E-15	0.0000000E+0	-17.185108E-9	3.5729699E+0	53.359525E-12	-10.694345E+0	201.20176E-6
-206.77349E-12	-219.21852E-15	0.0000000E+0	-17.187352E-9	-6.8428063E+0	50.047213E-12	-10.606481E+0	285.99624E-6	-243.74060E-15	0.0000000E+0	-17.187352E-9	1.9773622E+0	57.927472E-12	-10.935711E+0	181.84890E-6
-209.01797E-12	-246.89295E-15	0.0000000E+0	-17.189597E-9	-6.9346242E+0	48.651513E-12	-10.829854E+0	301.88099E-6	-238.64545E-15	0.0000000E+0	-17.189597E-9	5.2326913E+0	53.468438E-12	-10.750592E+0	255.77753E-6
-211.26251E-12	-248.35765E-15	0.0000000E+0	-17.191841E-9	-4.5436134E+0	52.155481E-12	-10.796991E+0	267.68583E-6	-235.11572E-15	0.0000000E+0	-17.191841E-9	3.7399721E+0	47.824380E-12	-11.045270E+0	317.65905E-6
-213.50699E-12	-239.37357E-15	0.0000000E+0	-17.194086E-9	-6.7720799E+0	48.895978E-12	-11.160456E+0	296.26678E-6	-235.64584E-15	0.0000000E+0	-17.194086E-9	3.9406300E+0	44.830036E-12	-11.139165E+0	338.39518E-6
-215.75147E-12	-232.59332E-15	0.0000000E+0	-17.196330E-9	-1.7137177E+0	47.673546E-12	-10.827509E+0	316.15759E-6	-243.97202E-15	0.0000000E+0	-17.196330E-9	6.2947626E+0	55.669188E-12	-11.088417E+0	221.41355E-6
-217.99595E-12	-245.30090E-15	0.0000000E+0	-17.198575E-9	-3.8685553E+0	47.139317E-12	-11.102791E+0	331.08928E-6	-239.62107E-15	0.0000000E+0	-17.198575E-9	4.6629052E+0	50.874679E-12	-11.412494E+0	287.11348E-6
-220.24044E-12	-253.68802E-15	0.0000000E+0	-17.200819E-9	-1.1688610E+0	50.202852E-12	-10.939381E+0	307.09989E-6	-221.64658E-15	0.0000000E+0	-17.200819E-9	2.3793077E+0	42.758869E-12	-11.680253E+0	366.60244E-6
-222.48492E-12	-223.38500E-15	0.0000000E+0	-17.203064E-9	-3.2447855E+0	55.919682E-12	-11.201140E+0	228.04324E-6	-242.33895E-15	0.0000000E+0	-17.203064E-9	4.8000116E+0	39.072520E-12	-11.591785E+0	371.06982E-6
-224.72940E-12	-242.31989E-15	0.0000000E+0	-17.205307E-9	-7.0694499E+0	56.139263E-12	-11.697956E+0	204.40841E-6	-218.07114E-15	0.0000000E+0	-17.205307E-9	7.6620121E+0	42.237842E-12	-11.511824E+0	306.72568E-6
-226.97388E-12	-235.13220E-15	0.0000000E+0	-17.207553E-9	-4.0553470E+0	55.986899E-12	-11.635124E+0	182.62803E-6	-249.73098E-15	0.0000000E+0	-17.207553E-9	5.3448277E+0	47.745995E-12	-11.875266E+0	229.58405E-6
-229.21842E-12	-248.81627E-15	0.0000000E+0	-17.209796E-9	-1.1980239E+0	51.432379E-12	-11.414191E+0	216.18645E-6	-241.49405E-15	0.0000000E+0	-17.209796E-9	4.8173656E+0	47.564858E-12	-12.053023E+0	225.61935E-6
-231.46290E-12	-236.67518E-15	0.0000000E+0	-17.212042E-9	-2.3986404E+0	48.479540E-12	-11.564599E+0	249.89358E-6	-232.50192E-15	0.0000000E+0	-17.212042E-9	8.8753042E+0	54.555461E-12	-11.906501E+0	147.16518E-6
-233.70733E-12	-236.63032E-15	0.0000000E+0	-17.214287E-9	-7.1164608E+0	46.790034E-12	-12.095210E+0	281.90721E-6	-224.76297E-15	0.0000000E+0	-17.214287E-9	7.1427488E+0	51.311573E-12	-12.282581E+0	201.55907E-6
-235.95187E-12	-249.58291E-15	0.0000000E+0	-17.216530E-9	-9.8136520E+0	48.638170E-12	-12.565735E+0	268.41587E-6	-240.89370E-15	0.0000000E+0	-17.216530E-9	2.9714015E+0	50.791805E-12	-12.769975E+0	210.36269E-6
-238.19630E-12	-249.79105E-15	0.0000000E+0	-17.218776E-9	-4.0851970E+0	54.102479E-12	-12.254682E+0	202.26618E-6	-244.83342E-15	0.0000000E+0	-17.218776E-9	3.9331782E+0	39.714034E-12	-12.838182E+0	312.96612E-6
-240.44083E-12	-237.55222E-15	0.0000000E+0	-17.221019E-9	-6.4932990E+0	44.934122E-12	-12.627434E+0	300.56990E-6	-248.01201E-15	0.0000000E+0	-17.221019E-9	7.5023942E+0	47.032073E-12	-12.658275E+0	204.34885E-6
-242.68537E-12	-231.15231E-15	0.0000000E+0	-17.223265E-9	-3.5453937E+0	44.963967E-12	-12.526149E+0	322.91480E-6	-225.64425E-15	0.0000000E+0	-17.223265E-9	4.3727951E+0	52.079376E-12	-13.101532E+0	152.67947E-6
-244.92980E-12	-229.92198E-15	0.0000000E+0	-17.225508E-9	-4.6289630E+0	55.540711E-12	-12.757922E+0	208.26390E-6	-235.34205E-15	0.0000000E+0	-17.225508E-9	4.3580580E+0	50.409989E-12	-13.238279E+0	177.59438E-6
-247.17434E-12	-233.05828E-15	0.0000000E+0	-17.227753E-9	-7.3999472E+0	51.148946E-12	-13.141140E+0	237.63640E-6	-237.43290E-15	0.0000000E+0	-17.227753E-9	2.3797441E+0	48.436782E-12	-13.496305E+0	195.59271E-6
-249.41876E-12	-211.52568E-15	0.0000000E+0	-17.229997E-9	-6.8649502E+0	54.011438E-12	-13.349038E+0	199.81321E-6	-247.79199E-15	0.0000000E+0	-17.229997E-9	9.6427002E+0	52.877938E-12	-13.027742E+0	145.47515E-6
-251.66330E-12	-238.11153E-15	0.0000000E+0	-17.232242E-9	-4.3826327E+0	60.821688E-12	-13.276836E+0	101.76427E-6	-231.90667E-15	0.0000000E+0	-17.232242E-9	5.5985842E+0	52.075382E-12	-13.599833E+0	162.91090E-6
-253.90773E-12	-215.68159E-15	0.0000000E+0	-17.234486E-9	-7.1048412E+0	59.706164E-12	-13.680463E+0	70.173890E-6	-237.76757E-15	0.0000000E+0	-17.234486E-9	7.3367572E+0	48.911965E-12	-13.627011E+0	195.24984E-6
-256.15227E-12	-238.28837E-15	0.0000000E+0	-17.236731E-9	-6.9017415E+0	48.832265E-12	-13.827524E+0	173.47727E-6	-224.05263E-15	0.0000000E+0	-17.236731E-9	6.9320488E+0	51.521988E-12	-13.871181E+0	165.02678E-6
-258.39680E-12	-258.78019E-15	0.0000000E+0	-17.238975E-9	-7.3482141E+0	49.869602E-12	-14.084838E+0	166.04697E-6	-219.82606E-15	0.0000000E+0	-17.238975E-9	4.9164639E+0	50.006433E-12	-14.214190E+0	194.27256E-6
-260.64123E-12	-258.50310E-15	0.0000000E+0	-17.241220E-9	-5.4361677E+0	49.955508E-12	-14.105300E+0	165.01472E-6	-234.08890E-15	0.0000000E+0	-17.241220E-9	8.2529621E+0	46.946759E-12	-14.124881E+0	221.40307E-6
-262.88577E-12	-251.14405E-15	0.0000000E+0	-17.243464E-9	-6.9828115E+0	53.188589E-12	-14.426394E+0	118.87008E-6	-234.71887E-15	0.0000000E+0	-17.243464E-9	4.9280138E+0	46.214692E-12	-14.566390E+0	212.83902E-6
-265.13020E-12	-227.74442E-15	0.0000000E+0	-17.245709E-9	-4.0342879E+0	48.823667E-12	-14.323589E+0	160.36908E-6	-232.27010E-15	0.0000000E+0	-17.245709E-9	6.7398205E+0	42.592343E-12	-14.568779E+0	233.34067E-6
-267.37473E-12	-245.81539E-15	0.0000000E+0	-17.247954E-9	-9.3270264E+0	45.963032E-12	-14.950357E+0	205.09094E-6	-223.54281E-15	0.0000000E+0	-17.247954E-9	7.4299250E+0	49.763367E-12	-14.662618E+0	135.31694E-6
-269.61916E-12	-233.30071E-15	0.0000000E+0	-17.250198E-9	-4.3314447E+0	51.600040E-12	-14.766727E+0	149.01640E-6	-233.43567E-15	0.0000000E+0	-17.250198E-9	9.1424999E+0	58.700753E-12	-14.781594E+0	56.430334E-6
-271.86370E-12	-232.93517E-15	0.0000000E+0	-17.252443E-9	-6.1081877E+0	52.626577E-12	-15.051650E+0	135.24604E-6	-219.17114E-15	0.0000000E+0	-17.252443E-9	6.4391251E+0	48.387350E-12	-15.252770E+0	183.34590E-6
-274.10813E-12	-211.47237E-15	0.0000000E+0	-17.254687E-9	-760.53613E-3	56.464576E-12	-14.694579E+0	72.187111E-6	-232.89920E-15	0.0000000E+0	-17.254687E-9	2.4341371E+0	47.858901E-12	-15.728037E+0	182.65257E-6
-276.35266E-12	-220.65868E-15	0.0000000E+0	-17.256932E-9	-6.6720338E+0	54.391314E-12	-15.284794E+0	75.918797E-6	-236.56221E-15	0.0000000E+0	-17.256932E-9	7.8351216E+0	52.286349E-12	-15.392563E+0	133.55249E-6
-278.59720E-12	-240.75452E-15	0.0000000E+0	-17.259175E-9	-5.2162385E+0	53.484321E-12	-15.370838E+0	74.588694E-6	-229.32039E-15	0.0000000E+0	-17.259175E-9	9.1863489E+0	54.239491E-12	-15.543640E+0	124.54508E-6
-280.84163E-12	-225.32948E-15	0.0000000E+0	-17.261421E-9	-1.6537548E+0	51.238930E-12	-15.134736E+0	92.305920E-6	-230.58031E-15	0.0000000E+0	-17.261421E-9	7.7839994E+0	50.488346E-12	-15.912782E+0	170.06314E-6
-283.08617E-12	-239.80427E-15	0.0000000E+0	-17.263664E-9	-7.6265640E+0	51.987203E-12	-15.813627E+0	80.825455E-6	-202.27464E-15	0.0000000E+0	-17.263664E-9	4.8501873E+0	52.054284E-12	-16.391390E+0	159.86784E-6
-285.33059E-12	-241.11073E-15	0.0000000E+0	-17.265910E-9	-6.4094582E+0	58.335156E-12	-15.926401E+0	-11.249951E-6	-225.49744E-15	0.0000000E+0	-17.265910E-9	5.0444422E+0	48.102314E-12	-16.503033E+0	202.23753E-6
-287.57513E-12	-238.35607E-15	0.0000000E+0	-17.268153E-9	-7.6190763E+0	53.126167E-12	-16.178160E+0	22.580041E-6	-239.39431E-15	0.0000000E+0	-17.268153E-9	5.0519872E+0	43.230756E-12	-16.654076E+0	243.33315E-6
-289.81956E-12	-239.61304E-15	0.0000000E+0	-17.270398E-9	-9.1256752E+0	42.959220E-12	-16.571625E+0	136.73193E-6	-223.31986E-15	0.0000000E+0	-17.270398E-9	7.8695121E+0	47.119458E-12	-16.534117E+0	180.83038E-6
-292.06410E-12	-232.27305E-15	0.0000000E+0	-17.272642E-9	-7.0364676E+0	47.623624E-12	-16.657072E+0	105.80976E-6	-235.39325E-15	0.0000000E+0	-17.272642E-9	12.588932E+0	55.594713E-12	-16.461578E+0	88.673281E-6
-294.30852E-12	-251.32598E-15	0.0000000E+0	-17.274887E-9	-2.0097704E+0	47.854908E-12	-16.343653E+0	111.57565E-6	-238.77111E-15	0.0000000E+0	-17.274887E-9	7.6912494E+0	62.170262E-12	-17.217226E+0	53.813328E-6
-296.55306E-12	-250.33006E-15	0.0000000E+0	-17.277133E-9	-9.0945349E+0	48.467553E-12	-17.119974E+0	118.22412E-6	-241.45640E-15	0.0000000E+0	-17.277133E-9	4.9195323E+0	51.369617E-12	-17.615162E+0	193.81891E-6
-298.79760E-12	-241.24908E-15	0.0000000E+0	-17.279376E-9	-9.4118185E+0	53.051875E-12	-17.425705E+0	60.397480E-6	-247.97560E-15	0.0000000E+0	-17.279376E-9	5.1886344E+0	50.382209E-12	-17.702545E+0	206.26772E-6
-301.04202E-12	-255.20604E-15	0.0000000E+0	-17.281621E-9	-6.8089032E+0	45.362991E-12	-17.431896E+0	147.92464E-6	-223.38500E-15	0.0000000E+0	-17.281621E-9	6.2194982E+0	49.074706E-12	-17.772612E+0	218.60706E-6
-303.28656E-12	-232.61617E-15	0.0000000E+0	-17.283865E-9	-6.2966871E+0	49.398409E-12	-17.564192E+0	119.39898E-6	-233.55666E-15	0.0000000E+0	-17.283865E-9	7.1008658E+0	45.298394E-12	-17.909578E+0	247.27406E-6
-305.53099E-12	-222.26300E-15	0.0000000E+0	-17.286110E-9	-4.1769323E+0	51.923708E-12	-17.538033E+0	86.354390E-6	-247.06937E-15	0.0000000E+0	-17.286110E-9	8.0165987E+0	49.924464E-12	-18.053999E+0	191.94116E-6
-307.77553E-12	-231.81484E-15	0.0000000E+0	-17.288354E-9	-8.5057058E+0	50.363609E-12	-18.071527E+0	96.485957E-6	-253.17780E-15	0.0000000E+0	-17.288354E-9	4.7304859E+0	49.936034E-12	-18.496632E+0	192.48833E-6
-310.01995E-12	-231.95700E-15	0.0000000E+0	-17.290599E-9	-4.3637896E+0	43.739203E-12	-17.955238E+0	184.56638E-6	-233.75846E-15	0.0000000E+0	-17.290599E-9	7.3392053E+0	46.860349E-12	-18.467644E+0	217.76136E-6
-312.26449E-12	-225.04137E-15	0.0000000E+0	-17.292843E-9	-6.6149735E+0	47.042970E-12	-18.288321E+0	167.09742E-6	-229.50823E-15	0.0000000E+0	-17.292843E-9	4.9740009E+0	49.079067E-12	-18.849157E+0	185.32189E-6
-314.50892E-12	-229.53997E-15	0.0000000E+0	-17.295088E-9	-7.8302860E+0	50.029304E-12	-18.613743E+0	136.16383E-6	-240.12538E-15	0.0000000E+0	-17.295088E-9	1.1146302E+0	52.377276E-12	-19.294064E+0	154.59654E-6
-316.75346E-12	-221.77434E-15	0.0000000E+0	-17.297332E-9	-9.7614298E+0	48.285816E-12	-18.996576E+0	158.29664E-6	-236.45644E-15	0.0000000E+0	-17.297332E-9	6.1674976E+0	47.291029E-12	-18.933924E+0	208.66719E-6
-318.99799E-12	-236.10234E-15	0.0000000E+0	-17.299577E-9	-8.9334364E+0	51.243527E-12	-19.219866E+0	129.04196E-6	-232.85266E-15	0.0000000E+0	-17.299577E-9	14.032424E+0	51.305397E-12	-18.524305E+0	158.97602E-6
-321.24242E-12	-244.38622E-15	0.0000000E+0	-17.301820E-9	-3.9970076E+0	49.017623E-12	-19.001541E+0	153.59541E-6	-228.06087E-15	0.0000000E+0	-17.301820E-9	10.383209E+0	57.220239E-12	-19.243195E+0	109.26353E-6
-323.48696E-12	-227.48760E-15	0.0000000E+0	-17.304066E-9	-10.913818E+0	46.956036E-12	-19.840887E+0	187.14991E-6	-248.52096E-15	0.0000000E+0	-17.304066E-9	3.2371006E+0	51.825221E-12	-20.008972E+0	194.48029E-6
-325.73139E-12	-228.87489E-15	0.0000000E+0	-17.306309E-9	-4.5134988E+0	57.730879E-12	-19.528870E+0	55.321212E-6	-234.83014E-15	0.0000000E+0	-17.306309E-9	9.5034647E+0	45.671741E-12	-19.677299E+0	251.60445E-6
-327.97592E-12	-235.05479E-15	0.0000000E+0	-17.308555E-9	-4.3347950E+0	51.000711E-12	-19.648014E+0	110.57522E-6	-235.54176E-15	0.0000000E+0	-17.308555E-9	4.2919922E+0	51.472205E-12	-20.314756E+0	175.40604E-6
-330.22035E-12	-234.62493E-15	0.0000000E+0	-17.310800E-9	-4.2122512E+0	46.560446E-12	-19.708263E+0	165.56586E-6	-235.28832E-15	0.0000000E+0	-17.310800E-9	6.3876715E+0	54.443429E-12	-20.271900E+0	157.26502E-6
-332.46489E-12	-222.97673E-15	0.0000000E+0	-17.313043E-9	-9.1407681E+0	46.697323E-12	-20.360540E+0	173.52759E-6	-228.63880E-15	0.0000000E+0	-17.313043E-9	5.3864694E+0	55.210322E-12	-20.557779E+0	166.19840E-6
-334.70943E-12	-245.99349E-15	0.0000000E+0	-17.315289E-9	-4.3730168E+0	44.691601E-12	-20.121674E+0	211.48738E-6	-249.49194E-15	0.0000000E+0	-17.315289E-9	8.1013718E+0	58.223246E-12	-20.471563E+0	155.04062E-6
-336.95385E-12	-227.72832E-15	0.0000000E+0	-17.317532E-9	-11.672052E+0	43.986544E-12	-21.023312E+0	244.82515E-6	-219.75584E-15	0.0000000E+0	-17.317532E-9	4.5865393E+0	51.605616E-12	-20.961481E+0	253.30012E-6
-339.19839E-12	-255.25385E-15	0.0000000E+0	-17.319778E-9	-4.9257746E+0	42.055109E-12	-20.678413E+0	293.81868E-6	-227.18467E-15	0.0000000E+0	-17.319778E-9	4.2121954E+0	47.205736E-12	-21.194378E+0	292.41556E-6
-341.44282E-12	-222.34847E-15	0.0000000E+0	-17.322021E-9	-5.8210483E+0	49.472159E-12	-20.918373E+0	226.95946E-6	-256.03822E-15	0.0000000E+0	-17.322021E-9	4.4985785E+0	50.439267E-12	-21.219797E+0	253.35784E-6
-343.68736E-12	-223.68243E-15	0.0000000E+0	-17.324266E-9	-9.9670630E+0	46.626203E-12	-21.481150E+0	273.92240E-6	-230.47243E-15	0.0000000E+0	-17.324266E-9	8.1053247E+0	51.047760E-12	-21.132368E+0	250.26588E-6
-345.93178E-12	-241.59263E-15	0.0000000E+0	-17.326510E-9	-5.3929648E+0	55.550068E-12	-21.306067E+0	163.71420E-6	-224.03317E-15	0.0000000E+0	-17.326510E-9	7.1031070E+0	47.790622E-12	-21.370066E+0	283.95854E-6
-348.17632E-12	-230.06626E-15	0.0000000E+0	-17.328755E-9	214.47331E-3	52.986764E-12	-20.897070E+0	181.55920E-6	-244.51356E-15	0.0000000E+0	-17.328755E-9	9.1956921E+0	54.606347E-12	-21.500355E+0	217.78005E-6
-350.42075E-12	-237.13507E-15	0.0000000E+0	-17.330999E-9	-2.5030134E+0	56.111241E-12	-21.130606E+0	130.21447E-6	-228.81225E-15	0.0000000E+0	-17.330999E-9	3.8976164E+0	48.409030E-12	-22.107285E+0	285.17548E-6
-352.66529E-12	-225.23259E-15	0.0000000E+0	-17.333244E-9	-6.1490679E+0	52.216259E-12	-21.626072E+0	157.29798E-6	-235.88656E-15	0.0000000E+0	-17.333244E-9	5.9930325E+0	50.983145E-12	-22.089962E+0	254.85313E-6
-354.90982E-12	-247.93416E-15	0.0000000E+0	-17.335488E-9	-7.1300669E+0	45.923730E-12	-21.892626E+0	228.59345E-6	-224.26501E-15	0.0000000E+0	-17.335488E-9	7.1811624E+0	57.713442E-12	-22.119232E+0	201.15072E-6
-357.15425E-12	-221.34069E-15	0.0000000E+0	-17.337733E-9	-8.0505419E+0	46.082867E-12	-22.208942E+0	249.21799E-6	-244.07313E-15	0.0000000E+0	-17.337733E-9	2.6221325E+0	50.875935E-12	-22.661764E+0	292.30912E-6
-359.39879E-12	-246.31420E-15	0.0000000E+0	-17.339977E-9	-2.8666925E+0	55.463772E-12	-21.953403E+0	135.55597E-6	-246.53080E-15	0.0000000E+0	-17.339977E-9	4.7096968E+0	48.731543E-12	-22.615282E+0	314.64640E-6
-361.64322E-12	-243.32047E-15	0.0000000E+0	-17.342222E-9	-3.5779574E+0	51.800616E-12	-22.123808E+0	162.66629E-6	-237.36056E-15	0.0000000E+0	-17.342222E-9	134.00736E-3	46.381503E-12	-23.070057E+0	332.74008E-6
-363.88775E-12	-230.90183E-15	0.0000000E+0	-17.344467E-9	984.59327E-3	56.183135E-12	-21.743155E+0	99.424025E-6	-246.63783E-15	0.0000000E+0	-17.344467E-9	3.8738301E+0	45.129712E-12	-22.819519E+0	329.27061E-6
-366.13218E-12	-242.88302E-15	0.0000000E+0	-17.346711E-9	-3.7524509E+0	50.432492E-12	-22.172958E+0	147.85564E-6	-233.95774E-15	0.0000000E+0	-17.346711E-9	2.0102763E+0	43.516222E-12	-23.126638E+0	321.87931E-6
-368.37672E-12	-234.54795E-15	0.0000000E+0	-17.348956E-9	-10.583921E+0	44.782730E-12	-22.977335E+0	224.11010E-6	-238.40261E-15	0.0000000E+0	-17.348956E-9	1.9172348E+0	47.263846E-12	-23.195606E+0	268.80961E-6
-370.62114E-12	-223.20901E-15	0.0000000E+0	-17.351200E-9	-9.7969370E+0	43.356780E-12	-23.183140E+0	269.89722E-6	-233.87821E-15	0.0000000E+0	-17.351200E-9	2.4493182E+0	47.237804E-12	-23.158730E+0	262.96888E-6
-372.86568E-12	-231.58851E-15	0.0000000E+0	-17.353445E-9	-9.6646700E+0	45.191944E-12	-23.480825E+0	264.74893E-6	-234.91137E-15	0.0000000E+0	-17.353445E-9	3.5866191E+0	52.803789E-12	-23.217213E+0	202.10567E-6
-375.11022E-12	-227.13687E-15	0.0000000E+0	-17.355688E-9	-8.0316515E+0	48.182961E-12	-23.594469E+0	243.11327E-6	-233.71954E-15	0.0000000E+0	-17.355688E-9	-455.92046E-3	50.678347E-12	-23.562815E+0	234.58323E-6
-377.35465E-12	-221.92411E-15	0.0000000E+0	-17.357934E-9	-4.2517381E+0	48.428095E-12	-23.425827E+0	249.37186E-6	-248.89032E-15	0.0000000E+0	-17.357934E-9	1.1604205E+0	45.732990E-12	-23.397440E+0	278.81420E-6
-379.59919E-12	-236.24280E-15	0.0000000E+0	-17.360177E-9	-1.3202672E+0	49.242020E-12	-23.259678E+0	245.79521E-6	-232.33482E-15	0.0000000E+0	-17.360177E-9	-288.91027E-3	46.629964E-12	-23.584843E+0	254.47714E-6
-381.84361E-12	-232.88058E-15	0.0000000E+0	-17.362423E-9	-6.5505333E+0	51.534235E-12	-23.829542E+0	215.40084E-6	-216.94406E-15	0.0000000E+0	-17.362423E-9	1.4259452E+0	50.004136E-12	-23.431480E+0	211.98888E-6
-384.08815E-12	-233.03923E-15	0.0000000E+0	-17.364666E-9	-967.90892E-3	56.775574E-12	-23.475004E+0	141.16336E-6	-223.24200E-15	0.0000000E+0	-17.364666E-9	-33.353895E-3	56.754094E-12	-23.568693E+0	151.27416E-6
-386.33258E-12	-255.11676E-15	0.0000000E+0	-17.366911E-9	773.19139E-3	51.837378E-12	-23.278629E+0	180.41866E-6	-236.98700E-15	0.0000000E+0	-17.366911E-9	-3.6935792E+0	51.656238E-12	-23.858345E+0	222.33576E-6
-388.57711E-12	-258.20481E-15	0.0000000E+0	-17.369155E-9	840.10738E-3	50.433959E-12	-23.251949E+0	196.07300E-6	-224.76678E-15	0.0000000E+0	-17.369155E-9	-826.00588E-3	47.427097E-12	-23.501104E+0	259.10483E-6
-390.82154E-12	-255.24325E-15	0.0000000E+0	-17.371400E-9	-53.434458E-3	48.175540E-12	-23.283716E+0	224.61862E-6	-223.09350E-15	0.0000000E+0	-17.371400E-9	4.6578369E+0	52.142887E-12	-23.097637E+0	210.19710E-6
-393.06608E-12	-237.77687E-15	0.0000000E+0	-17.373646E-9	-2.7273321E+0	52.029752E-12	-23.576693E+0	180.32319E-6	-234.58728E-15	0.0000000E+0	-17.373646E-9	1.5709150E+0	53.828036E-12	-23.473274E+0	206.43785E-6
-395.31062E-12	-252.21443E-15	0.0000000E+0	-17.375889E-9	-1.9047968E+0	49.232615E-12	-23.551224E+0	209.89872E-6	-226.34063E-15	0.0000000E+0	-17.375889E-9	3.9409120E+0	53.669961E-12	-23.360895E+0	217.84598E-6
-397.55504E-12	-221.84584E-15	0.0000000E+0	-17.378134E-9	-4.1558766E+0	40.820680E-12	-23.851736E+0	319.33835E-6	-206.21689E-15	0.0000000E+0	-17.378134E-9	2.5215559E+0	53.948540E-12	-23.571423E+0	231.35963E-6
-399.79958E-12	-234.69516E-15	0.0000000E+0	-17.380378E-9	-10.128817E+0	49.832825E-12	-24.554232E+0	237.25280E-6	-222.62220E-15	0.0000000E+0	-17.380378E-9	-3.5045588E+0	51.304606E-12	-24.114334E+0	271.47034E-6
-402.04401E-12	-222.53885E-15	0.0000000E+0	-17.382623E-9	-4.0784621E+0	46.706299E-12	-24.222469E+0	279.79445E-6	-242.41340E-15	0.0000000E+0	-17.382623E-9	2.2280314E+0	46.342274E-12	-23.611628E+0	318.46101E-6
-404.28855E-12	-224.10254E-15	0.0000000E+0	-17.384867E-9	-2.6727676E+0	52.640767E-12	-24.216959E+0	215.11702E-6	-215.27754E-15	0.0000000E+0	-17.384867E-9	-5.7599368E+0	49.678487E-12	-24.204334E+0	276.53461E-6
-406.53297E-12	-212.16283E-15	0.0000000E+0	-17.387112E-9	5.7220693E+0	47.483632E-12	-23.420082E+0	274.84508E-6	-239.36978E-15	0.0000000E+0	-17.387112E-9	-2.7888634E+0	50.500930E-12	-23.841331E+0	265.23659E-6
-408.77751E-12	-220.14210E-15	0.0000000E+0	-17.389356E-9	2.2166262E+0	49.908307E-12	-23.613951E+0	245.77379E-6	-225.22328E-15	0.0000000E+0	-17.389356E-9	-1.0081427E+0	55.505243E-12	-23.615597E+0	222.50236E-6
-411.02205E-12	-240.72657E-15	0.0000000E+0	-17.391601E-9	-3.8358297E+0	48.069305E-12	-24.140188E+0	271.32747E-6	-264.01749E-15	0.0000000E+0	-17.391601E-9	3.7011156E+0	53.960711E-12	-23.281239E+0	259.11484E-6
-413.26648E-12	-220.33460E-15	0.0000000E+0	-17.393845E-9	588.55033E-3	48.170728E-12	-23.825897E+0	275.26173E-6	-221.01576E-15	0.0000000E+0	-17.393845E-9	-725.43424E-3	48.809280E-12	-23.677523E+0	319.72019E-6
-415.51101E-12	-215.67397E-15	0.0000000E+0	-17.396090E-9	5.2161894E+0	50.535298E-12	-23.322811E+0	256.93365E-6	-237.24634E-15	0.0000000E+0	-17.396090E-9	2.3928268E+0	46.720627E-12	-23.479588E+0	331.05013E-6
-417.75544E-12	-233.30028E-15	0.0000000E+0	-17.398333E-9	3.9281533E+0	49.166185E-12	-23.234236E+0	272.48467E-6	-235.57051E-15	0.0000000E+0	-17.398333E-9	-2.6932857E+0	46.468569E-12	-23.890093E+0	316.10171E-6
-419.99998E-12	-229.37200E-15	0.0000000E+0	-17.400579E-9	-922.73670E-3	48.018017E-12	-23.684959E+0	293.37578E-6	-218.41490E-15	0.0000000E+0	-17.400579E-9	-1.8210839E+0	48.806313E-12	-23.798918E+0	290.47061E-6
