Experiment	Z spectroscopy	
Saved Date	16.02.2019 17:36:39	
User		
X (m)	75.4743E-9	
Y (m)	15.394E-9	
Z (m)	-16.9806E-9	
Z offset (m)	700E-12	
Z sweep distance (m)	1.12E-9	
Settling time (s)	10E-3	
Integration time (s)	60E-3	
Final Z (m)	N/A	
Start time	16.02.2019 17:35:20	
Filter type	None	
Order		
Cutoff frq		

[DATA]
Z rel (m)	Current (A)	Bias (V)	Z (m)	OC D1 Phase (deg)	OC D1 Amplitude (m)	OC M1 Freq. Shift (Hz)	OC M1 Excitation (V)	Current [bwd] (A)	Bias [bwd] (V)	Z [bwd] (m)	OC D1 Phase [bwd] (deg)	OC D1 Amplitude [bwd] (m)	OC M1 Freq. Shift [bwd] (Hz)	OC M1 Excitation [bwd] (V)
700.00000E-12	-238.30447E-15	0.0000000E+0	-16.280579E-9	-4.8968291E+0	48.704044E-12	-184.95280E-3	199.79487E-6	-237.35761E-15	0.0000000E+0	-16.280579E-9	-3.7305372E+0	46.833183E-12	-272.93706E-3	152.28169E-6
697.75552E-12	-252.37478E-15	0.0000000E+0	-16.282824E-9	-5.5710120E+0	45.619626E-12	-369.38912E-3	246.23433E-6	-227.58447E-15	0.0000000E+0	-16.282824E-9	-905.21395E-3	51.241702E-12	83.696336E-3	101.98750E-6
695.51104E-12	-242.73536E-15	0.0000000E+0	-16.285068E-9	-3.9640584E+0	52.792767E-12	-350.73569E-3	169.77642E-6	-228.48734E-15	0.0000000E+0	-16.285068E-9	1.2293885E+0	53.722821E-12	253.98898E-3	80.100428E-6
693.26656E-12	-235.41398E-15	0.0000000E+0	-16.287313E-9	-3.1366611E+0	51.643811E-12	-422.24026E-3	173.01255E-6	-232.22440E-15	0.0000000E+0	-16.287313E-9	-1.1958355E+0	50.330910E-12	-143.45867E-6	125.38530E-6
691.02207E-12	-232.22228E-15	0.0000000E+0	-16.289556E-9	2.7897599E+0	53.468528E-12	77.549487E-3	146.92159E-6	-233.32608E-15	0.0000000E+0	-16.289556E-9	-504.53842E-3	58.307879E-12	114.69799E-3	56.607325E-6
688.77754E-12	-228.20726E-15	0.0000000E+0	-16.291802E-9	4.7030859E+0	56.429448E-12	352.49701E-3	97.567026E-6	-224.12709E-15	0.0000000E+0	-16.291802E-9	135.75129E-3	51.722598E-12	133.41255E-3	156.64283E-6
686.53305E-12	-230.85405E-15	0.0000000E+0	-16.294045E-9	4.1379800E+0	48.710438E-12	414.08750E-3	176.04649E-6	-237.87209E-15	0.0000000E+0	-16.294045E-9	-257.46858E-3	48.974262E-12	137.51334E-3	182.38225E-6
684.28857E-12	-237.61906E-15	0.0000000E+0	-16.296291E-9	-242.02605E-3	47.330383E-12	93.036868E-3	197.16425E-6	-231.29786E-15	0.0000000E+0	-16.296291E-9	-3.0221162E+0	46.458091E-12	-59.893671E-3	200.12584E-6
682.04409E-12	-217.86171E-15	0.0000000E+0	-16.298534E-9	221.11991E-3	54.255715E-12	162.32556E-3	116.45010E-6	-214.99958E-15	0.0000000E+0	-16.298534E-9	273.61602E-3	42.648184E-12	236.76217E-3	224.69622E-6
679.79961E-12	-230.84049E-15	0.0000000E+0	-16.300779E-9	-2.7954736E+0	54.156145E-12	-143.85176E-3	101.00674E-6	-235.75879E-15	0.0000000E+0	-16.300779E-9	-1.5579425E+0	44.873820E-12	99.569857E-3	175.93949E-6
677.55512E-12	-238.81214E-15	0.0000000E+0	-16.303023E-9	-4.1693969E+0	50.331943E-12	-403.70861E-3	136.86800E-6	-215.02963E-15	0.0000000E+0	-16.303023E-9	1.4094427E+0	47.822649E-12	342.47419E-3	134.49107E-6
675.31064E-12	-244.09936E-15	0.0000000E+0	-16.305268E-9	3.8454571E+0	44.471923E-12	291.20886E-3	210.52065E-6	-211.63823E-15	0.0000000E+0	-16.305268E-9	-2.9452739E+0	55.014923E-12	-4.4518672E-3	62.501422E-6
673.06616E-12	-243.59589E-15	0.0000000E+0	-16.307512E-9	1.9268157E+0	50.526208E-12	228.84120E-3	156.64664E-6	-224.33524E-15	0.0000000E+0	-16.307512E-9	-2.1011121E+0	50.701554E-12	156.03097E-3	123.20472E-6
670.82162E-12	-229.79508E-15	0.0000000E+0	-16.309757E-9	2.7664628E+0	51.244217E-12	366.73349E-3	144.00431E-6	-226.34740E-15	0.0000000E+0	-16.309757E-9	4.2850132E+0	51.135259E-12	647.00496E-3	120.44595E-6
668.57714E-12	-228.74668E-15	0.0000000E+0	-16.312001E-9	-388.99916E-3	46.204176E-12	94.695203E-3	210.54757E-6	-223.21324E-15	0.0000000E+0	-16.312001E-9	2.0727208E+0	52.336240E-12	355.15565E-3	115.34376E-6
666.33266E-12	-235.42287E-15	0.0000000E+0	-16.314246E-9	-1.0405500E+0	48.127818E-12	25.357945E-3	196.46091E-6	-234.83776E-15	0.0000000E+0	-16.314246E-9	3.1712072E+0	58.217514E-12	394.78412E-3	68.156638E-6
664.08817E-12	-242.63594E-15	0.0000000E+0	-16.316491E-9	-5.7643967E+0	42.071464E-12	-480.19934E-3	282.59339E-6	-245.66942E-15	0.0000000E+0	-16.316491E-9	4.3095794E+0	56.542909E-12	341.32221E-3	116.56424E-6
661.84369E-12	-227.01333E-15	0.0000000E+0	-16.318735E-9	1.9271955E+0	56.011317E-12	106.16457E-3	132.39068E-6	-243.78926E-15	0.0000000E+0	-16.318735E-9	3.0820231E+0	62.340480E-12	127.48447E-3	85.276602E-6
659.59921E-12	-253.94273E-15	0.0000000E+0	-16.320980E-9	2.8121278E+0	54.027352E-12	258.50284E-3	131.95381E-6	-243.08398E-15	0.0000000E+0	-16.320980E-9	2.2611084E+0	54.042711E-12	-867.05125E-6	209.57533E-6
657.35473E-12	-245.23745E-15	0.0000000E+0	-16.323224E-9	-51.429592E-3	49.519128E-12	51.113691E-3	172.72391E-6	-234.79038E-15	0.0000000E+0	-16.323224E-9	-4.3795576E+0	45.298622E-12	-535.51692E-3	304.81556E-6
655.11024E-12	-233.17589E-15	0.0000000E+0	-16.325469E-9	336.43261E-3	55.572789E-12	88.426657E-3	98.941506E-6	-242.66258E-15	0.0000000E+0	-16.325469E-9	-885.72866E-3	47.928439E-12	-146.68183E-3	257.25862E-6
652.86576E-12	-232.13598E-15	0.0000000E+0	-16.327713E-9	1.8600976E+0	48.432713E-12	300.36819E-3	167.37060E-6	-245.87924E-15	0.0000000E+0	-16.327713E-9	-1.7349584E+0	52.394592E-12	-216.00759E-3	206.70673E-6
650.62122E-12	-224.57428E-15	0.0000000E+0	-16.329958E-9	-1.1658220E+0	53.080963E-12	62.728241E-3	118.42711E-6	-236.40863E-15	0.0000000E+0	-16.329958E-9	-2.3193088E+0	51.575355E-12	-211.02776E-3	225.72193E-6
648.37674E-12	-225.80501E-15	0.0000000E+0	-16.332201E-9	-1.8070922E+0	51.599693E-12	-60.334168E-3	121.10875E-6	-243.17790E-15	0.0000000E+0	-16.332201E-9	-1.8832877E+0	48.377628E-12	-122.46909E-3	256.10466E-6
646.13226E-12	-237.32798E-15	0.0000000E+0	-16.334447E-9	900.13039E-3	50.155730E-12	154.98683E-3	131.31447E-6	-232.30774E-15	0.0000000E+0	-16.334447E-9	1.6084706E+0	44.419475E-12	208.58082E-3	288.36526E-6
643.88778E-12	-252.90829E-15	0.0000000E+0	-16.336690E-9	-772.81743E-3	43.474117E-12	1.2852959E-3	223.55966E-6	-221.74642E-15	0.0000000E+0	-16.336690E-9	549.69311E-3	43.055989E-12	39.636903E-3	279.71575E-6
641.64329E-12	-234.80135E-15	0.0000000E+0	-16.338936E-9	-1.4828870E+0	45.595739E-12	-79.803206E-3	218.23995E-6	-250.27379E-15	0.0000000E+0	-16.338936E-9	-103.47009E-3	47.519384E-12	12.929614E-3	211.88389E-6
639.39881E-12	-240.91232E-15	0.0000000E+0	-16.341179E-9	-8.5709858E+0	39.831336E-12	-824.90957E-3	312.66036E-6	-238.09630E-15	0.0000000E+0	-16.341179E-9	-2.8088996E+0	47.344777E-12	-152.66219E-3	209.70931E-6
637.15433E-12	-230.99112E-15	0.0000000E+0	-16.343424E-9	1.6692519E+0	48.309124E-12	-37.849505E-3	236.86019E-6	-227.24264E-15	0.0000000E+0	-16.343424E-9	-2.4337583E+0	46.497448E-12	-7.7350875E-3	205.58624E-6
634.90985E-12	-213.58311E-15	0.0000000E+0	-16.345670E-9	3.9636416E+0	49.143668E-12	253.56090E-3	229.89267E-6	-234.51876E-15	0.0000000E+0	-16.345670E-9	3.1053584E+0	50.951469E-12	374.93882E-3	156.49461E-6
632.66536E-12	-233.86214E-15	0.0000000E+0	-16.347913E-9	588.35304E-3	52.831909E-12	20.961694E-3	187.20371E-6	-241.29562E-15	0.0000000E+0	-16.347913E-9	1.0699246E+0	50.705422E-12	174.17195E-3	158.26110E-6
630.42083E-12	-234.08467E-15	0.0000000E+0	-16.350159E-9	1.9048742E+0	51.773582E-12	138.20931E-3	190.62911E-6	-224.81755E-15	0.0000000E+0	-16.350159E-9	2.2800245E+0	53.054883E-12	206.80289E-3	142.64545E-6
628.17634E-12	-234.94732E-15	0.0000000E+0	-16.352402E-9	-2.1868346E+0	48.099306E-12	-185.02958E-3	229.74862E-6	-246.07177E-15	0.0000000E+0	-16.352402E-9	388.19432E-3	48.072404E-12	34.044400E-3	193.03510E-6
625.93186E-12	-235.63145E-15	0.0000000E+0	-16.354647E-9	1.6356673E+0	47.667877E-12	150.00828E-3	245.10655E-6	-236.73525E-15	0.0000000E+0	-16.354647E-9	-20.443887E-3	51.944549E-12	-6.1141718E-3	152.95448E-6
623.68738E-12	-242.27674E-15	0.0000000E+0	-16.356891E-9	-503.87585E-3	51.673187E-12	-27.216258E-3	204.00422E-6	-227.55064E-15	0.0000000E+0	-16.356891E-9	-5.4107270E+0	49.702440E-12	-396.41318E-3	173.38766E-6
621.44290E-12	-252.69972E-15	0.0000000E+0	-16.359136E-9	-551.46241E-3	53.680994E-12	-56.030571E-3	168.12561E-6	-241.68444E-15	0.0000000E+0	-16.359136E-9	-455.15123E-3	53.861426E-12	114.38338E-3	145.36738E-6
619.19841E-12	-214.58116E-15	0.0000000E+0	-16.361380E-9	-3.5508854E+0	55.507172E-12	-383.09288E-3	131.43593E-6	-235.05183E-15	0.0000000E+0	-16.361380E-9	1.9385024E+0	50.142668E-12	287.87547E-3	190.85019E-6
616.95393E-12	-240.78116E-15	0.0000000E+0	-16.363625E-9	3.2078145E+0	47.894116E-12	206.31319E-3	211.66237E-6	-235.62088E-15	0.0000000E+0	-16.363625E-9	-921.12416E-3	45.965089E-12	25.683198E-3	232.85799E-6
614.70939E-12	-252.95865E-15	0.0000000E+0	-16.365869E-9	-474.70441E-3	50.971966E-12	-62.528871E-3	178.02234E-6	-220.69338E-15	0.0000000E+0	-16.365869E-9	2.5870366E+0	47.096712E-12	323.75142E-3	197.79817E-6
612.46491E-12	-241.89681E-15	0.0000000E+0	-16.368114E-9	-2.4125810E+0	48.599860E-12	-269.85475E-3	205.63745E-6	-232.17618E-15	0.0000000E+0	-16.368114E-9	2.8248763E+0	53.553752E-12	260.85916E-3	129.10985E-6
610.22043E-12	-236.44376E-15	0.0000000E+0	-16.370358E-9	-502.21813E-3	41.774983E-12	-157.23538E-3	304.29396E-6	-232.46850E-15	0.0000000E+0	-16.370358E-9	5.2234716E+0	53.920545E-12	313.91183E-3	142.80963E-6
607.97595E-12	-240.01835E-15	0.0000000E+0	-16.372603E-9	-2.3154933E+0	46.363597E-12	-336.78702E-3	276.08708E-6	-228.69125E-15	0.0000000E+0	-16.372603E-9	-3.7693684E+0	50.466967E-12	-454.09146E-3	180.90066E-6
605.73146E-12	-225.02825E-15	0.0000000E+0	-16.374846E-9	-1.6969696E+0	46.892847E-12	-326.97371E-3	278.58792E-6	-235.45586E-15	0.0000000E+0	-16.374846E-9	-942.05719E-3	53.718387E-12	-143.83797E-3	155.53011E-6
603.48698E-12	-217.73691E-15	0.0000000E+0	-16.377092E-9	4.4978401E-3	52.152536E-12	-218.16356E-3	225.49742E-6	-220.34730E-15	0.0000000E+0	-16.377092E-9	3.8669667E+0	49.511374E-12	162.75042E-3	209.41258E-6
601.24250E-12	-237.29795E-15	0.0000000E+0	-16.379337E-9	-2.1861222E+0	55.025571E-12	-444.41783E-3	179.42522E-6	-229.33096E-15	0.0000000E+0	-16.379337E-9	-2.2350068E+0	46.580070E-12	-358.30730E-3	228.25872E-6
598.99802E-12	-232.30858E-15	0.0000000E+0	-16.381581E-9	2.2348790E+0	57.285541E-12	-43.069776E-3	135.26966E-6	-238.44070E-15	0.0000000E+0	-16.381581E-9	1.7898401E+0	50.404979E-12	-34.941431E-3	189.52928E-6
596.75354E-12	-233.17844E-15	0.0000000E+0	-16.383826E-9	6.0516167E+0	49.868287E-12	404.20595E-3	199.46837E-6	-227.29933E-15	0.0000000E+0	-16.383826E-9	-3.6124420E+0	50.441439E-12	-469.71932E-3	186.97316E-6
594.50900E-12	-237.72992E-15	0.0000000E+0	-16.386069E-9	4.9472561E+0	51.205231E-12	449.50831E-3	188.58754E-6	-244.54234E-15	0.0000000E+0	-16.386069E-9	4.3239098E+0	48.396745E-12	262.93746E-3	201.42649E-6
592.26452E-12	-228.79872E-15	0.0000000E+0	-16.388315E-9	-1.4574205E+0	55.404951E-12	-77.026434E-3	125.82522E-6	-232.53450E-15	0.0000000E+0	-16.388315E-9	-3.7095418E+0	43.794239E-12	-501.36173E-3	241.98442E-6
590.02003E-12	-235.69701E-15	0.0000000E+0	-16.390558E-9	-1.7641405E+0	52.769553E-12	-133.59462E-3	135.47004E-6	-233.34977E-15	0.0000000E+0	-16.390558E-9	-261.95151E-3	44.222816E-12	-123.91405E-3	214.51279E-6
587.77555E-12	-239.44464E-15	0.0000000E+0	-16.392804E-9	1.4479103E+0	50.917357E-12	123.86581E-3	157.11023E-6	-224.51717E-15	0.0000000E+0	-16.392804E-9	66.701815E-3	45.789553E-12	-123.90840E-3	173.40950E-6
585.53107E-12	-241.03248E-15	0.0000000E+0	-16.395047E-9	-5.7544475E+0	56.188835E-12	-548.82330E-3	80.920989E-6	-249.05363E-15	0.0000000E+0	-16.395047E-9	-3.2793930E+0	50.983426E-12	-350.70169E-3	115.45254E-6
583.28659E-12	-232.06911E-15	0.0000000E+0	-16.397292E-9	-1.4396248E+0	51.308676E-12	-294.18716E-3	117.60621E-6	-233.14120E-15	0.0000000E+0	-16.397292E-9	-2.1054981E+0	49.204970E-12	-171.29208E-3	136.27786E-6
581.04210E-12	-233.58374E-15	0.0000000E+0	-16.399536E-9	-3.5235763E+0	48.738871E-12	-549.08097E-3	151.08706E-6	-260.74455E-15	0.0000000E+0	-16.399536E-9	189.80151E-3	50.283715E-12	50.961554E-3	126.69353E-6
578.79762E-12	-234.02249E-15	0.0000000E+0	-16.401781E-9	1.6495857E+0	50.516442E-12	-100.82772E-3	127.77188E-6	-231.35622E-15	0.0000000E+0	-16.401781E-9	431.21868E-3	46.786457E-12	94.350092E-3	161.14567E-6
576.55314E-12	-225.18013E-15	0.0000000E+0	-16.404025E-9	1.3633322E+0	51.928076E-12	-75.269118E-3	113.10293E-6	-245.47860E-15	0.0000000E+0	-16.404025E-9	896.68196E-3	53.998681E-12	89.762710E-3	83.988722E-6
574.30860E-12	-252.49155E-15	0.0000000E+0	-16.406270E-9	4.9292995E-3	48.452756E-12	-229.18858E-3	149.54615E-6	-224.33185E-15	0.0000000E+0	-16.406270E-9	1.3341750E+0	55.276717E-12	87.558083E-3	92.522583E-6
572.06412E-12	-240.23920E-15	0.0000000E+0	-16.408514E-9	3.9540269E+0	44.368120E-12	244.20045E-3	208.27771E-6	-247.14597E-15	0.0000000E+0	-16.408514E-9	3.1229155E+0	49.186284E-12	212.89533E-3	161.11918E-6
569.81964E-12	-229.84585E-15	0.0000000E+0	-16.410759E-9	-2.8998878E+0	46.940615E-12	-363.82914E-3	199.82432E-6	-248.85817E-15	0.0000000E+0	-16.410759E-9	3.8774786E+0	51.561089E-12	190.63219E-3	141.90377E-6
567.57515E-12	-238.62726E-15	0.0000000E+0	-16.413004E-9	2.8315952E+0	52.754856E-12	119.98411E-3	135.21200E-6	-232.33523E-15	0.0000000E+0	-16.413004E-9	5.1198487E+0	51.524576E-12	157.61097E-3	147.30946E-6
565.33067E-12	-222.89339E-15	0.0000000E+0	-16.415248E-9	2.0631053E+0	49.484809E-12	128.60811E-3	165.66715E-6	-220.89519E-15	0.0000000E+0	-16.415248E-9	-2.6764777E+0	47.445780E-12	-544.53510E-3	189.01599E-6
563.08619E-12	-227.67121E-15	0.0000000E+0	-16.417493E-9	1.9445194E+0	58.428887E-12	116.43347E-3	52.918309E-6	-224.43721E-15	0.0000000E+0	-16.417493E-9	1.4293821E+0	50.550848E-12	-221.78264E-3	157.23052E-6
560.84171E-12	-229.97489E-15	0.0000000E+0	-16.419737E-9	-866.17285E-3	52.401278E-12	-98.533288E-3	100.67130E-6	-237.96346E-15	0.0000000E+0	-16.419737E-9	-445.82576E-3	48.483488E-12	-398.19637E-3	178.37317E-6
558.59717E-12	-239.23989E-15	0.0000000E+0	-16.421982E-9	-3.3591456E+0	51.133084E-12	-364.03963E-3	106.27923E-6	-239.58301E-15	0.0000000E+0	-16.421982E-9	-3.4304094E+0	48.014724E-12	-583.60088E-3	170.18101E-6
556.35274E-12	-241.02739E-15	0.0000000E+0	-16.424226E-9	3.2302299E+0	49.259867E-12	170.30637E-3	126.73644E-6	-235.22994E-15	0.0000000E+0	-16.424226E-9	-2.1089592E+0	49.087880E-12	-370.02623E-3	155.42145E-6
554.10820E-12	-218.03222E-15	0.0000000E+0	-16.426471E-9	1.5975071E+0	48.274610E-12	155.53160E-3	139.68082E-6	-214.42124E-15	0.0000000E+0	-16.426471E-9	1.7484303E+0	55.297392E-12	-55.432238E-3	100.39923E-6
551.86372E-12	-235.50240E-15	0.0000000E+0	-16.428714E-9	-1.5772200E+0	50.402540E-12	-123.45044E-3	119.75992E-6	-231.80682E-15	0.0000000E+0	-16.428714E-9	-2.8866627E+0	49.081701E-12	-451.37709E-3	168.25697E-6
549.61924E-12	-224.93178E-15	0.0000000E+0	-16.430960E-9	-1.4158179E+0	46.633728E-12	-147.13031E-3	165.68949E-6	-253.71426E-15	0.0000000E+0	-16.430960E-9	3.9368436E+0	53.083867E-12	124.49728E-3	130.04796E-6
547.37476E-12	-224.95294E-15	0.0000000E+0	-16.433203E-9	-1.9106758E+0	41.291612E-12	-255.18507E-3	247.06902E-6	-233.42466E-15	0.0000000E+0	-16.433203E-9	2.3952620E+0	52.479042E-12	-90.807155E-3	144.71641E-6
545.13027E-12	-245.86699E-15	0.0000000E+0	-16.435449E-9	-1.9927503E+0	48.401800E-12	-308.97263E-3	187.41423E-6	-232.66396E-15	0.0000000E+0	-16.435449E-9	1.2470230E+0	53.624587E-12	-253.58111E-3	150.20967E-6
542.88579E-12	-235.76386E-15	0.0000000E+0	-16.437692E-9	-3.3028102E+0	47.595400E-12	-466.50150E-3	204.94814E-6	-241.66200E-15	0.0000000E+0	-16.437692E-9	-3.4054642E+0	49.747140E-12	-644.25665E-3	194.01529E-6
540.64131E-12	-220.06172E-15	0.0000000E+0	-16.439937E-9	-1.3125757E+0	47.924123E-12	-345.05853E-3	211.93700E-6	-251.74060E-15	0.0000000E+0	-16.439937E-9	4.1320901E+0	44.796385E-12	77.046283E-3	235.73438E-6
538.39677E-12	-245.21799E-15	0.0000000E+0	-16.442183E-9	-533.01054E-3	45.372192E-12	-294.20969E-3	240.49332E-6	-224.28617E-15	0.0000000E+0	-16.442183E-9	3.6429169E+0	49.753049E-12	-144.02308E-3	171.88449E-6
536.15234E-12	-239.29445E-15	0.0000000E+0	-16.444426E-9	-1.6032996E+0	46.385677E-12	-400.51746E-3	250.92307E-6	-232.59162E-15	0.0000000E+0	-16.444426E-9	-4.6471319E+0	42.381047E-12	-881.35028E-3	239.30600E-6
533.90781E-12	-229.29372E-15	0.0000000E+0	-16.446672E-9	-3.7544308E+0	46.293778E-12	-702.58844E-3	261.55048E-6	-255.42266E-15	0.0000000E+0	-16.446672E-9	-1.4404255E+0	45.249735E-12	-466.24368E-3	177.50481E-6
531.66332E-12	-241.37728E-15	0.0000000E+0	-16.448915E-9	3.6952150E+0	52.889804E-12	-6.2797656E-3	197.61178E-6	-224.68640E-15	0.0000000E+0	-16.448915E-9	-3.9055035E+0	50.084315E-12	-617.06889E-3	118.58810E-6
529.41884E-12	-250.85806E-15	0.0000000E+0	-16.451160E-9	4.5741916E+0	50.559428E-12	148.76124E-3	211.42652E-6	-219.74948E-15	0.0000000E+0	-16.451160E-9	-3.0462227E+0	49.409456E-12	-392.62715E-3	127.65273E-6
527.17436E-12	-233.96197E-15	0.0000000E+0	-16.453404E-9	-1.0506439E+0	50.320501E-12	-267.68562E-3	215.92197E-6	-237.83696E-15	0.0000000E+0	-16.453404E-9	2.0055480E+0	53.067467E-12	2.7340248E-3	85.535823E-6
524.92988E-12	-225.66794E-15	0.0000000E+0	-16.455649E-9	4.0352063E+0	51.167244E-12	203.63159E-3	202.91156E-6	-242.63764E-15	0.0000000E+0	-16.455649E-9	-392.28585E-3	52.311825E-12	-201.99710E-3	109.44902E-6
522.68539E-12	-224.31155E-15	0.0000000E+0	-16.457893E-9	2.0197847E+0	48.924316E-12	107.68607E-3	231.71217E-6	-233.16573E-15	0.0000000E+0	-16.457893E-9	-1.3154312E+0	57.367076E-12	-297.27098E-3	73.521136E-6
520.44091E-12	-251.79349E-15	0.0000000E+0	-16.460138E-9	642.00306E-3	46.280237E-12	37.263107E-3	265.35874E-6	-227.14788E-15	0.0000000E+0	-16.460138E-9	-136.52833E-3	55.439143E-12	-175.72169E-3	120.48186E-6
518.19637E-12	-258.16632E-15	0.0000000E+0	-16.462382E-9	-1.2131402E+0	51.241698E-12	-93.694299E-3	211.19951E-6	-243.67712E-15	0.0000000E+0	-16.462382E-9	-1.6855093E+0	43.032623E-12	-274.38053E-3	250.69460E-6
515.95195E-12	-247.73827E-15	0.0000000E+0	-16.464627E-9	-745.47499E-3	50.612202E-12	-142.19986E-3	218.04517E-6	-236.70437E-15	0.0000000E+0	-16.464627E-9	2.3328640E+0	47.823058E-12	58.292829E-3	185.40338E-6
513.70741E-12	-232.57809E-15	0.0000000E+0	-16.466871E-9	-1.0086769E+0	55.824664E-12	-188.96143E-3	150.49445E-6	-241.62690E-15	0.0000000E+0	-16.466871E-9	1.4355927E+0	52.997391E-12	-91.373123E-3	124.78721E-6
511.46293E-12	-219.34375E-15	0.0000000E+0	-16.469116E-9	-2.9564850E+0	57.176628E-12	-391.01577E-3	111.36585E-6	-222.46396E-15	0.0000000E+0	-16.469116E-9	1.5849091E+0	48.635845E-12	-124.28238E-3	177.72347E-6
509.21845E-12	-231.42688E-15	0.0000000E+0	-16.471359E-9	-3.4982908E+0	51.560679E-12	-517.35961E-3	159.03266E-6	-225.39548E-15	0.0000000E+0	-16.471359E-9	1.3398293E+0	46.109547E-12	-124.62495E-3	197.30403E-6
506.97396E-12	-230.91918E-15	0.0000000E+0	-16.473605E-9	438.50735E-3	52.949235E-12	-233.87463E-3	133.68654E-6	-233.93489E-15	0.0000000E+0	-16.473605E-9	-2.8060994E+0	45.918245E-12	-529.54531E-3	185.70210E-6
504.72948E-12	-233.71067E-15	0.0000000E+0	-16.475850E-9	4.4035168E+0	49.362278E-12	180.08462E-3	168.88985E-6	-239.85715E-15	0.0000000E+0	-16.475850E-9	-450.93817E-3	47.062597E-12	-260.04085E-3	160.86873E-6
502.48500E-12	-242.27080E-15	0.0000000E+0	-16.478094E-9	-602.38153E-3	46.101161E-12	-197.96054E-3	209.70253E-6	-236.29441E-15	0.0000000E+0	-16.478094E-9	-419.55164E-3	54.889236E-12	-251.78301E-3	73.235242E-6
500.24052E-12	-222.98224E-15	0.0000000E+0	-16.480339E-9	658.28043E-3	50.566794E-12	-125.45513E-3	171.51321E-6	-220.28469E-15	0.0000000E+0	-16.480339E-9	3.3995681E+0	51.832785E-12	77.503040E-3	123.00159E-6
497.99598E-12	-228.35534E-15	0.0000000E+0	-16.482582E-9	-3.5193653E+0	51.561637E-12	-493.70039E-3	153.02876E-6	-224.07801E-15	0.0000000E+0	-16.482582E-9	-2.4143527E+0	43.024175E-12	-456.88000E-3	201.29986E-6
495.75150E-12	-220.47719E-15	0.0000000E+0	-16.484828E-9	-2.8604040E+0	52.451349E-12	-609.35819E-3	133.52373E-6	-220.34688E-15	0.0000000E+0	-16.484828E-9	489.86685E-3	52.463530E-12	-224.75687E-3	86.028711E-6
493.50701E-12	-208.33144E-15	0.0000000E+0	-16.487071E-9	2.2327430E+0	53.881809E-12	-121.72919E-3	110.67040E-6	-244.21784E-15	0.0000000E+0	-16.487071E-9	-1.9180585E+0	52.813628E-12	-403.29596E-3	96.537617E-6
491.26253E-12	-241.79359E-15	0.0000000E+0	-16.489317E-9	5.2322145E+0	48.987200E-12	270.28260E-3	150.33880E-6	-221.19134E-15	0.0000000E+0	-16.489317E-9	1.5350949E+0	51.905980E-12	-104.59904E-3	123.13729E-6
489.01805E-12	-224.97916E-15	0.0000000E+0	-16.491560E-9	1.0864089E+0	44.768984E-12	11.409677E-3	210.46230E-6	-246.83500E-15	0.0000000E+0	-16.491560E-9	750.26780E-3	54.388920E-12	-205.71811E-3	102.58613E-6
486.77357E-12	-218.93336E-15	0.0000000E+0	-16.493805E-9	-2.6866035E+0	54.379262E-12	-407.77937E-3	112.40621E-6	-222.65054E-15	0.0000000E+0	-16.493805E-9	-2.0540926E+0	48.503597E-12	-424.33077E-3	171.39771E-6
484.52908E-12	-248.00228E-15	0.0000000E+0	-16.496049E-9	-1.8524668E+0	56.906185E-12	-380.61145E-3	61.721512E-6	-235.98048E-15	0.0000000E+0	-16.496049E-9	-682.15418E-3	45.031104E-12	-294.75644E-3	196.89955E-6
482.28460E-12	-223.42732E-15	0.0000000E+0	-16.498294E-9	4.5568409E+0	50.041218E-12	227.43475E-3	124.69944E-6	-222.20546E-15	0.0000000E+0	-16.498294E-9	3.2209055E+0	48.385136E-12	40.891837E-3	143.94874E-6
480.04012E-12	-242.90755E-15	0.0000000E+0	-16.500538E-9	-2.4740260E+0	51.779810E-12	-323.04701E-3	106.06446E-6	-228.41077E-15	0.0000000E+0	-16.500538E-9	3.1997879E+0	56.224185E-12	-43.621942E-3	67.426939E-6
477.79558E-12	-225.82236E-15	0.0000000E+0	-16.502783E-9	789.19935E-3	44.961691E-12	-85.720740E-3	181.76336E-6	-229.76716E-15	0.0000000E+0	-16.502783E-9	-58.279518E-3	59.105866E-12	-386.17581E-3	62.576946E-6
475.55110E-12	-224.39490E-15	0.0000000E+0	-16.505027E-9	-1.0077345E+0	44.739570E-12	-213.31233E-3	205.16261E-6	-235.91575E-15	0.0000000E+0	-16.505027E-9	1.3660133E+0	53.745012E-12	-251.84208E-3	152.44128E-6
473.30662E-12	-239.14215E-15	0.0000000E+0	-16.507272E-9	-2.6457624E+0	42.617927E-12	-439.60506E-3	255.55227E-6	-249.98566E-15	0.0000000E+0	-16.507272E-9	-337.00746E-3	48.878693E-12	-440.19091E-3	203.20903E-6
471.06213E-12	-235.36026E-15	0.0000000E+0	-16.509517E-9	-5.0103378E+0	46.100169E-12	-745.26006E-3	239.55137E-6	-228.72722E-15	0.0000000E+0	-16.509517E-9	3.2099426E+0	49.728780E-12	-185.19939E-3	191.86323E-6
468.81765E-12	-245.73667E-15	0.0000000E+0	-16.511761E-9	-1.4589975E+0	52.130082E-12	-567.68692E-3	185.20596E-6	-227.74144E-15	0.0000000E+0	-16.511761E-9	3.6158309E+0	46.152897E-12	-253.18480E-3	226.77639E-6
466.57317E-12	-219.86753E-15	0.0000000E+0	-16.514006E-9	1.7635125E+0	53.391184E-12	-221.94819E-3	151.62844E-6	-239.10027E-15	0.0000000E+0	-16.514006E-9	-1.4884512E+0	46.036560E-12	-716.63296E-3	212.79602E-6
464.32866E-12	-222.45634E-15	0.0000000E+0	-16.516250E-9	2.4014177E+0	49.271639E-12	-88.333525E-3	196.96784E-6	-239.39897E-15	0.0000000E+0	-16.516250E-9	-2.5405226E+0	52.553913E-12	-775.08974E-3	137.17389E-6
462.08418E-12	-220.44377E-15	0.0000000E+0	-16.518495E-9	-2.7409570E+0	51.318956E-12	-558.04735E-3	171.48079E-6	-243.12079E-15	0.0000000E+0	-16.518495E-9	761.75576E-3	54.122221E-12	-456.46861E-3	133.12600E-6
459.83969E-12	-234.41172E-15	0.0000000E+0	-16.520739E-9	-1.9620112E+0	50.281161E-12	-600.83228E-3	179.70757E-6	-228.73823E-15	0.0000000E+0	-16.520739E-9	-1.8802736E+0	42.837196E-12	-672.64235E-3	252.31644E-6
457.59521E-12	-252.39934E-15	0.0000000E+0	-16.522984E-9	-3.2716191E+0	50.924650E-12	-810.76974E-3	173.35390E-6	-246.54519E-15	0.0000000E+0	-16.522984E-9	-2.5728900E+0	43.766216E-12	-673.77484E-3	213.36622E-6
455.35070E-12	-241.91925E-15	0.0000000E+0	-16.525227E-9	2.9125681E+0	49.258746E-12	-275.00293E-3	192.37469E-6	-214.00703E-15	0.0000000E+0	-16.525227E-9	1.2832682E+0	56.656495E-12	-305.37689E-3	74.327298E-6
453.10622E-12	-222.63785E-15	0.0000000E+0	-16.527473E-9	3.1464713E+0	50.143799E-12	-188.74085E-3	180.68388E-6	-240.61024E-15	0.0000000E+0	-16.527473E-9	2.8918152E+0	50.719470E-12	-220.55896E-3	153.19751E-6
450.86174E-12	-229.13212E-15	0.0000000E+0	-16.529716E-9	-2.4811051E+0	55.419832E-12	-698.11898E-3	115.96653E-6	-236.26777E-15	0.0000000E+0	-16.529716E-9	180.21108E-3	52.836128E-12	-528.39023E-3	139.68193E-6
448.61725E-12	-232.98000E-15	0.0000000E+0	-16.531962E-9	3.7905250E+0	55.966225E-12	-148.42282E-3	84.280226E-6	-260.28171E-15	0.0000000E+0	-16.531962E-9	-2.8174040E+0	42.793401E-12	-767.04538E-3	241.72261E-6
446.37277E-12	-220.28680E-15	0.0000000E+0	-16.534205E-9	2.6978009E+0	56.017659E-12	-117.33506E-3	64.521926E-6	-233.55287E-15	0.0000000E+0	-16.534205E-9	-2.5985584E+0	43.236411E-12	-627.11847E-3	211.99210E-6
444.12826E-12	-234.54879E-15	0.0000000E+0	-16.536450E-9	1.2839235E+0	47.688610E-12	-160.23822E-3	144.68702E-6	-261.27424E-15	0.0000000E+0	-16.536450E-9	-1.9461368E+0	48.414613E-12	-529.81716E-3	144.36379E-6
441.88378E-12	-240.76043E-15	0.0000000E+0	-16.538696E-9	139.90347E-3	49.125797E-12	-219.97449E-3	135.10769E-6	-246.98773E-15	0.0000000E+0	-16.538696E-9	-1.4083326E+0	50.930125E-12	-395.56754E-3	118.42235E-6
439.63930E-12	-228.22713E-15	0.0000000E+0	-16.540939E-9	-543.54340E-3	46.600356E-12	-280.76670E-3	171.45091E-6	-244.78434E-15	0.0000000E+0	-16.540939E-9	-2.4239106E+0	43.271671E-12	-442.09376E-3	183.40399E-6
437.39481E-12	-244.24744E-15	0.0000000E+0	-16.543185E-9	-4.0803237E+0	53.466603E-12	-680.83036E-3	95.274263E-6	-238.92723E-15	0.0000000E+0	-16.543185E-9	701.08372E-3	54.682394E-12	-183.93533E-3	61.576196E-6
435.15030E-12	-247.66677E-15	0.0000000E+0	-16.545428E-9	699.20874E-3	49.181912E-12	-335.57564E-3	142.44588E-6	-227.53498E-15	0.0000000E+0	-16.545428E-9	1.9712642E+0	52.358125E-12	-65.843359E-3	96.372656E-6
432.90582E-12	-229.45196E-15	0.0000000E+0	-16.547673E-9	822.71039E-3	50.675845E-12	-301.98735E-3	121.29055E-6	-235.61578E-15	0.0000000E+0	-16.547673E-9	-1.2262329E+0	54.839799E-12	-363.21911E-3	82.481864E-6
430.66134E-12	-221.46338E-15	0.0000000E+0	-16.549917E-9	1.8667816E+0	44.045739E-12	-176.71070E-3	204.21762E-6	-240.24554E-15	0.0000000E+0	-16.549917E-9	6.2084413E+0	59.554507E-12	252.62707E-3	55.977402E-6
428.41686E-12	-236.03168E-15	0.0000000E+0	-16.552162E-9	-1.2170411E+0	45.700714E-12	-460.78202E-3	204.23255E-6	-219.24814E-15	0.0000000E+0	-16.552162E-9	3.6753139E+0	56.543190E-12	-179.82562E-3	125.11632E-6
426.17235E-12	-246.00534E-15	0.0000000E+0	-16.554406E-9	-1.4009061E+0	48.179898E-12	-521.84075E-3	190.14480E-6	-215.37908E-15	0.0000000E+0	-16.554406E-9	1.9065237E+0	57.032878E-12	-366.44411E-3	139.76853E-6
423.92787E-12	-227.00276E-15	0.0000000E+0	-16.556651E-9	3.1415656E+0	53.124883E-12	-76.724201E-3	133.56784E-6	-252.07229E-15	0.0000000E+0	-16.556651E-9	1.6866326E+0	48.338118E-12	-438.11950E-3	243.35523E-6
421.68338E-12	-249.81980E-15	0.0000000E+0	-16.558895E-9	-392.77542E-3	47.318045E-12	-320.07384E-3	199.06090E-6	-227.26929E-15	0.0000000E+0	-16.558895E-9	-5.0758877E+0	46.381780E-12	-971.35073E-3	253.80292E-6
419.43890E-12	-242.75016E-15	0.0000000E+0	-16.561140E-9	-4.3214192E+0	51.387845E-12	-720.88498E-3	157.62281E-6	-245.95416E-15	0.0000000E+0	-16.561140E-9	-326.84031E-3	47.661795E-12	-486.85539E-3	232.21901E-6
417.19439E-12	-238.78339E-15	0.0000000E+0	-16.563384E-9	-2.3506217E+0	57.788004E-12	-662.81229E-3	67.734618E-6	-217.32059E-15	0.0000000E+0	-16.563384E-9	6.1841989E+0	49.640847E-12	-3.9077494E-3	205.61679E-6
414.94991E-12	-233.67427E-15	0.0000000E+0	-16.565629E-9	-1.2468065E+0	54.704484E-12	-568.38036E-3	80.167505E-6	-246.37510E-15	0.0000000E+0	-16.565629E-9	5.0668921E+0	51.951114E-12	-274.06791E-3	187.33770E-6
412.70543E-12	-224.92544E-15	0.0000000E+0	-16.567872E-9	-1.1203458E+0	50.731894E-12	-602.31525E-3	112.78100E-6	-249.79316E-15	0.0000000E+0	-16.567872E-9	1.7005607E+0	51.497855E-12	-734.53033E-3	198.43197E-6
410.46094E-12	-236.62398E-15	0.0000000E+0	-16.570118E-9	-3.9729276E+0	46.137257E-12	-924.34424E-3	162.97238E-6	-261.52767E-15	0.0000000E+0	-16.570118E-9	377.13644E-3	48.207879E-12	-829.07647E-3	232.56267E-6
408.21646E-12	-231.15909E-15	0.0000000E+0	-16.572363E-9	-2.4045949E+0	48.324216E-12	-917.62555E-3	153.75293E-6	-237.68379E-15	0.0000000E+0	-16.572363E-9	241.75617E-3	44.814565E-12	-844.73550E-3	252.54057E-6
405.97195E-12	-214.00027E-15	0.0000000E+0	-16.574607E-9	-1.9605362E+0	43.401810E-12	-941.95437E-3	222.30040E-6	-249.66287E-15	0.0000000E+0	-16.574607E-9	-2.4857442E+0	48.106290E-12	-1.1030121E+0	203.77018E-6
403.72747E-12	-216.81501E-15	0.0000000E+0	-16.576852E-9	3.9096344E+0	41.640559E-12	-406.05164E-3	269.02845E-6	-239.49118E-15	0.0000000E+0	-16.576852E-9	279.71676E-3	50.638754E-12	-782.33534E-3	172.45805E-6
401.48299E-12	-241.38954E-15	0.0000000E+0	-16.579095E-9	1.8087285E+0	54.709601E-12	-523.08542E-3	137.11720E-6	-216.42536E-15	0.0000000E+0	-16.579095E-9	29.141614E-3	48.250740E-12	-829.78684E-3	196.51698E-6
399.23850E-12	-243.94538E-15	0.0000000E+0	-16.581341E-9	5.3204393E+0	55.510496E-12	-105.68661E-3	107.68008E-6	-226.28478E-15	0.0000000E+0	-16.581341E-9	-1.9796219E+0	41.350128E-12	-962.90845E-3	259.42628E-6
396.99399E-12	-234.12782E-15	0.0000000E+0	-16.583584E-9	-4.3441458E+0	48.508135E-12	-935.05472E-3	177.07206E-6	-233.86637E-15	0.0000000E+0	-16.583584E-9	129.23659E-3	47.320137E-12	-818.90315E-3	166.61185E-6
394.74951E-12	-245.72906E-15	0.0000000E+0	-16.585830E-9	2.2423999E+0	50.137037E-12	-420.26988E-3	160.18313E-6	-246.18683E-15	0.0000000E+0	-16.585830E-9	-1.6572827E+0	49.838099E-12	-912.64653E-3	133.45231E-6
392.50503E-12	-226.42524E-15	0.0000000E+0	-16.588073E-9	-2.9416864E+0	43.595617E-12	-846.83621E-3	248.92416E-6	-237.28694E-15	0.0000000E+0	-16.588073E-9	-138.35688E-3	54.107947E-12	-739.64185E-3	97.911055E-6
390.26055E-12	-242.83521E-15	0.0000000E+0	-16.590318E-9	-2.6453850E+0	48.710723E-12	-937.42430E-3	206.80869E-6	-220.41161E-15	0.0000000E+0	-16.590318E-9	749.39030E-3	54.453216E-12	-705.36667E-3	116.57020E-6
388.01604E-12	-236.27367E-15	0.0000000E+0	-16.592562E-9	3.9394579E+0	51.207448E-12	-366.43326E-3	176.55246E-6	-237.97869E-15	0.0000000E+0	-16.592562E-9	2.2846150E+0	46.907693E-12	-627.75511E-3	196.98222E-6
385.77155E-12	-242.39562E-15	0.0000000E+0	-16.594807E-9	-3.4519582E+0	50.411696E-12	-977.62519E-3	182.35813E-6	-245.41515E-15	0.0000000E+0	-16.594807E-9	-5.1237516E+0	49.624225E-12	-1.2364167E+0	164.81295E-6
383.52707E-12	-240.29251E-15	0.0000000E+0	-16.597051E-9	-4.2261548E+0	49.608873E-12	-1.1719980E+0	190.64442E-6	-244.64938E-15	0.0000000E+0	-16.597051E-9	2.8064158E+0	49.917154E-12	-441.98602E-3	156.52638E-6
381.28259E-12	-249.99582E-15	0.0000000E+0	-16.599296E-9	-49.939737E-3	49.972755E-12	-895.44165E-3	187.28284E-6	-251.00993E-15	0.0000000E+0	-16.599296E-9	-117.93786E-3	52.538831E-12	-783.36239E-3	139.48008E-6
379.03808E-12	-256.44100E-15	0.0000000E+0	-16.601540E-9	2.8714964E+0	51.825662E-12	-585.83808E-3	157.70309E-6	-242.40663E-15	0.0000000E+0	-16.601540E-9	1.4393759E+0	43.245591E-12	-696.50155E-3	229.40677E-6
376.79360E-12	-229.12068E-15	0.0000000E+0	-16.603785E-9	1.5819118E+0	49.421141E-12	-587.22609E-3	184.39877E-6	-240.48203E-15	0.0000000E+0	-16.603785E-9	-864.38876E-3	49.622952E-12	-831.06315E-3	143.91229E-6
374.54911E-12	-237.85176E-15	0.0000000E+0	-16.606030E-9	2.1721087E+0	47.275552E-12	-475.72893E-3	214.39242E-6	-237.85599E-15	0.0000000E+0	-16.606030E-9	-1.1194506E+0	50.898789E-12	-830.78748E-3	140.46088E-6
372.30463E-12	-235.31201E-15	0.0000000E+0	-16.608274E-9	389.32031E-3	50.524092E-12	-589.43981E-3	184.27124E-6	-242.27083E-15	0.0000000E+0	-16.608274E-9	-1.3377908E+0	49.757667E-12	-859.97456E-3	142.70938E-6
370.06015E-12	-242.07622E-15	0.0000000E+0	-16.610519E-9	-1.2040939E+0	45.108299E-12	-760.61863E-3	249.44564E-6	-229.23110E-15	0.0000000E+0	-16.610519E-9	3.9501333E+0	56.610019E-12	-466.14078E-3	80.745260E-6
367.81564E-12	-246.53546E-15	0.0000000E+0	-16.612763E-9	-417.28333E-3	49.201643E-12	-707.90851E-3	219.29268E-6	-233.00792E-15	0.0000000E+0	-16.612763E-9	1.0423300E+0	56.688758E-12	-792.23508E-3	108.97371E-6
365.57116E-12	-238.62937E-15	0.0000000E+0	-16.615008E-9	-886.03997E-3	52.733082E-12	-782.77355E-3	183.85667E-6	-243.88784E-15	0.0000000E+0	-16.615008E-9	-6.4964275E+0	46.243401E-12	-1.3939348E+0	225.49641E-6
363.32667E-12	-224.53197E-15	0.0000000E+0	-16.617252E-9	1.3946962E+0	57.795508E-12	-581.31832E-3	104.92809E-6	-231.82246E-15	0.0000000E+0	-16.617252E-9	-93.619108E-3	50.470073E-12	-716.35276E-3	172.03837E-6
361.08219E-12	-241.61421E-15	0.0000000E+0	-16.619497E-9	-2.0193470E+0	51.234537E-12	-836.38537E-3	159.68079E-6	-254.23083E-15	0.0000000E+0	-16.619497E-9	4.1064315E+0	53.425049E-12	-395.87560E-3	143.15132E-6
358.83768E-12	-259.67035E-15	0.0000000E+0	-16.621740E-9	1.8471997E+0	49.290082E-12	-515.83904E-3	178.68121E-6	-219.57307E-15	0.0000000E+0	-16.621740E-9	-707.03906E-3	49.934556E-12	-902.18496E-3	194.68358E-6
356.59320E-12	-213.20742E-15	0.0000000E+0	-16.623986E-9	-63.456438E-3	49.115236E-12	-655.95520E-3	181.31780E-6	-233.54059E-15	0.0000000E+0	-16.623986E-9	5.5186462E+0	44.225582E-12	-384.99841E-3	241.15277E-6
354.34872E-12	-244.13238E-15	0.0000000E+0	-16.626229E-9	1.7869084E+0	51.971261E-12	-488.09987E-3	156.39175E-6	-220.21191E-15	0.0000000E+0	-16.626229E-9	-303.01183E-3	50.088305E-12	-991.38421E-3	166.12964E-6
352.10423E-12	-236.05282E-15	0.0000000E+0	-16.628475E-9	-526.49832E-3	59.099822E-12	-680.53305E-3	58.715064E-6	-248.08942E-15	0.0000000E+0	-16.628475E-9	2.9218428E+0	56.758091E-12	-752.90459E-3	108.87565E-6
349.85972E-12	-236.83510E-15	0.0000000E+0	-16.630718E-9	-89.457080E-3	55.710405E-12	-652.53550E-3	71.645249E-6	-233.55414E-15	0.0000000E+0	-16.630718E-9	841.84140E-3	52.735229E-12	-967.58479E-3	171.94351E-6
347.61524E-12	-246.40853E-15	0.0000000E+0	-16.632963E-9	-5.1609521E+0	44.703876E-12	-1.1474680E+0	195.63769E-6	-230.09334E-15	0.0000000E+0	-16.632963E-9	-5.1503143E+0	52.700979E-12	-1.4078615E+0	181.41308E-6
345.37076E-12	-244.31387E-15	0.0000000E+0	-16.635209E-9	-4.1993732E+0	45.847600E-12	-1.2305112E+0	200.95371E-6	-232.09830E-15	0.0000000E+0	-16.635209E-9	-415.82775E-3	48.300582E-12	-910.37089E-3	227.86489E-6
343.12628E-12	-247.98577E-15	0.0000000E+0	-16.637452E-9	3.4307568E+0	55.355515E-12	-573.27759E-3	99.277611E-6	-236.33968E-15	0.0000000E+0	-16.637452E-9	3.9913237E+0	43.476851E-12	-544.84558E-3	268.32329E-6
340.88177E-12	-228.73017E-15	0.0000000E+0	-16.639698E-9	4.4375224E+0	52.998519E-12	-369.66890E-3	108.94671E-6	-250.42482E-15	0.0000000E+0	-16.639698E-9	-4.2237535E+0	50.253402E-12	-1.2908822E+0	182.90403E-6
338.63728E-12	-220.71198E-15	0.0000000E+0	-16.641941E-9	2.2321708E+0	54.225808E-12	-417.47352E-3	80.506179E-6	-240.46384E-15	0.0000000E+0	-16.641941E-9	-1.9085835E+0	51.830814E-12	-991.80931E-3	167.90059E-6
336.39280E-12	-233.33581E-15	0.0000000E+0	-16.644186E-9	782.78297E-3	46.322415E-12	-516.29955E-3	166.22851E-6	-245.65037E-15	0.0000000E+0	-16.644186E-9	-1.9767730E+0	49.226435E-12	-965.27511E-3	198.18429E-6
334.14832E-12	-248.16176E-15	0.0000000E+0	-16.646430E-9	-4.0110240E+0	47.960299E-12	-1.0188161E+0	166.44245E-6	-228.30202E-15	0.0000000E+0	-16.646430E-9	-491.78129E-3	50.864219E-12	-775.18451E-3	178.72169E-6
331.90384E-12	-227.85186E-15	0.0000000E+0	-16.648675E-9	-814.46117E-3	44.786699E-12	-787.96327E-3	209.09119E-6	-241.02866E-15	0.0000000E+0	-16.648675E-9	2.2285128E+0	49.500713E-12	-526.79145E-3	198.06196E-6
329.65933E-12	-242.24503E-15	0.0000000E+0	-16.650919E-9	4.6546774E+0	47.989147E-12	-251.23441E-3	181.50787E-6	-234.98795E-15	0.0000000E+0	-16.650919E-9	2.8648229E+0	46.686283E-12	-561.68151E-3	220.05579E-6
327.41485E-12	-245.44307E-15	0.0000000E+0	-16.653164E-9	-87.405466E-3	43.271130E-12	-589.57809E-3	246.56474E-6	-251.62085E-15	0.0000000E+0	-16.653164E-9	4.5746646E+0	51.617179E-12	-547.78141E-3	165.59045E-6
325.17036E-12	-229.03606E-15	0.0000000E+0	-16.655408E-9	-4.8705220E+0	39.205576E-12	-1.0883543E+0	335.11996E-6	-224.97832E-15	0.0000000E+0	-16.655408E-9	274.89069E-3	50.025692E-12	-951.47836E-3	181.69006E-6
322.92588E-12	-242.24839E-15	0.0000000E+0	-16.657653E-9	-1.4820080E+0	52.378653E-12	-943.71283E-3	198.09477E-6	-223.67312E-15	0.0000000E+0	-16.657653E-9	-22.670176E-3	47.395775E-12	-1.0013282E+0	203.74496E-6
320.68137E-12	-239.58003E-15	0.0000000E+0	-16.659897E-9	3.9029391E+0	51.893205E-12	-439.46043E-3	195.49404E-6	-258.42227E-15	0.0000000E+0	-16.659897E-9	-1.1208808E+0	47.479704E-12	-1.0726303E+0	193.30661E-6
318.43689E-12	-237.76673E-15	0.0000000E+0	-16.662142E-9	741.32574E-3	52.710385E-12	-619.08847E-3	178.61417E-6	-228.69464E-15	0.0000000E+0	-16.662142E-9	-1.4623910E+0	52.262548E-12	-1.0825148E+0	140.23445E-6
316.19241E-12	-235.37801E-15	0.0000000E+0	-16.664385E-9	-2.6220651E+0	56.448447E-12	-973.94729E-3	120.52320E-6	-226.69982E-15	0.0000000E+0	-16.664385E-9	198.16461E-3	55.056050E-12	-893.10223E-3	123.80083E-6
313.94792E-12	-241.24485E-15	0.0000000E+0	-16.666631E-9	-916.67634E-3	50.370014E-12	-845.38984E-3	176.43330E-6	-239.78142E-15	0.0000000E+0	-16.666631E-9	3.2504315E+0	55.403574E-12	-674.04479E-3	136.80503E-6
311.70341E-12	-237.05850E-15	0.0000000E+0	-16.668876E-9	-3.9678040E+0	50.181210E-12	-1.2399678E+0	181.90466E-6	-260.22037E-15	0.0000000E+0	-16.668876E-9	461.86185E-3	52.391116E-12	-971.26573E-3	188.07765E-6
309.45893E-12	-244.63203E-15	0.0000000E+0	-16.671120E-9	1.8837243E+0	57.085912E-12	-702.71850E-3	92.087801E-6	-255.20433E-15	0.0000000E+0	-16.671120E-9	4.1263657E+0	48.888484E-12	-714.26260E-3	224.74889E-6
307.21445E-12	-225.78344E-15	0.0000000E+0	-16.673365E-9	1.7073433E+0	56.911999E-12	-703.64797E-3	65.110878E-6	-258.06267E-15	0.0000000E+0	-16.673365E-9	755.92554E-3	50.664428E-12	-1.0866091E+0	211.86535E-6
304.96997E-12	-219.36576E-15	0.0000000E+0	-16.675608E-9	-800.17722E-3	51.596939E-12	-903.03159E-3	106.77100E-6	-229.84837E-15	0.0000000E+0	-16.675608E-9	-1.7541751E+0	48.578853E-12	-1.2777191E+0	229.50275E-6
302.72548E-12	-229.09531E-15	0.0000000E+0	-16.677854E-9	-1.0801287E+0	45.036183E-12	-927.64699E-3	184.21179E-6	-238.52657E-15	0.0000000E+0	-16.677854E-9	-1.3983222E+0	47.079857E-12	-1.1825153E+0	238.09829E-6
300.48097E-12	-237.19007E-15	0.0000000E+0	-16.680097E-9	-1.2301439E+0	39.132950E-12	-962.80211E-3	278.03128E-6	-226.62410E-15	0.0000000E+0	-16.680097E-9	929.07649E-3	51.146528E-12	-1.0000325E+0	185.11484E-6
298.23649E-12	-244.99123E-15	0.0000000E+0	-16.682343E-9	-187.36319E-3	51.375588E-12	-910.85947E-3	166.24010E-6	-226.44725E-15	0.0000000E+0	-16.682343E-9	1.0147873E+0	51.736008E-12	-1.0057324E+0	188.36232E-6
295.99201E-12	-235.05818E-15	0.0000000E+0	-16.684586E-9	-3.0385752E+0	53.741605E-12	-1.2538242E+0	126.37986E-6	-244.68280E-15	0.0000000E+0	-16.684586E-9	-1.4260362E+0	47.434810E-12	-1.2180330E+0	235.46515E-6
293.74753E-12	-245.62879E-15	0.0000000E+0	-16.686831E-9	1.5669155E+0	49.601809E-12	-836.20793E-3	163.45555E-6	-220.42092E-15	0.0000000E+0	-16.686831E-9	-7.0061469E+0	44.094253E-12	-1.5976754E+0	255.23000E-6
291.50302E-12	-241.75212E-15	0.0000000E+0	-16.689075E-9	1.2220625E+0	49.790738E-12	-876.95599E-3	166.18981E-6	-233.04050E-15	0.0000000E+0	-16.689075E-9	2.5186133E+0	52.293541E-12	-721.80313E-3	155.99074E-6
289.25853E-12	-232.80824E-15	0.0000000E+0	-16.691320E-9	-14.927082E-3	45.860107E-12	-954.32085E-3	209.70484E-6	-224.49729E-15	0.0000000E+0	-16.691320E-9	1.1145080E+0	53.007130E-12	-868.44987E-3	159.47669E-6
287.01405E-12	-233.83506E-15	0.0000000E+0	-16.693564E-9	-2.6088104E+0	46.057335E-12	-1.1991516E+0	225.22286E-6	-222.29346E-15	0.0000000E+0	-16.693564E-9	2.3953664E+0	49.179050E-12	-831.90811E-3	207.66402E-6
284.76957E-12	-226.57417E-15	0.0000000E+0	-16.695809E-9	-2.0402479E+0	51.889285E-12	-1.2530921E+0	170.68782E-6	-220.44884E-15	0.0000000E+0	-16.695809E-9	-4.1212592E+0	47.373175E-12	-1.3775927E+0	221.17281E-6
282.52506E-12	-249.24106E-15	0.0000000E+0	-16.698053E-9	-1.7854639E+0	53.857412E-12	-1.2972049E+0	132.66833E-6	-233.25035E-15	0.0000000E+0	-16.698053E-9	1.1998185E+0	50.334868E-12	-843.97918E-3	181.52081E-6
280.28058E-12	-225.93152E-15	0.0000000E+0	-16.700298E-9	-4.1156063E+0	52.548379E-12	-1.6002516E+0	137.86819E-6	-217.99244E-15	0.0000000E+0	-16.700298E-9	3.3279536E+0	49.078141E-12	-668.95324E-3	197.10913E-6
278.03609E-12	-222.09208E-15	0.0000000E+0	-16.702543E-9	-1.5020609E+0	47.957568E-12	-1.3903401E+0	184.58735E-6	-233.98948E-15	0.0000000E+0	-16.702543E-9	4.4501867E+0	50.876959E-12	-701.22433E-3	178.62403E-6
275.79161E-12	-235.35983E-15	0.0000000E+0	-16.704787E-9	2.2674065E+0	52.940395E-12	-1.0837420E+0	130.04061E-6	-221.97996E-15	0.0000000E+0	-16.704787E-9	6.8514471E+0	50.632266E-12	-655.63518E-3	187.60790E-6
273.54710E-12	-241.39081E-15	0.0000000E+0	-16.707032E-9	2.5743086E+0	41.631372E-12	-1.0123800E+0	256.14383E-6	-221.84838E-15	0.0000000E+0	-16.707032E-9	2.2568488E+0	50.932508E-12	-1.1673384E+0	183.94120E-6
271.30262E-12	-251.17452E-15	0.0000000E+0	-16.709276E-9	-6.5905299E+0	44.468609E-12	-1.8440065E+0	263.39522E-6	-245.05086E-15	0.0000000E+0	-16.709276E-9	4.9222703E+0	53.035878E-12	-1.0730267E+0	169.51200E-6
269.05814E-12	-247.51024E-15	0.0000000E+0	-16.711521E-9	-2.8367362E-3	51.871618E-12	-1.3733441E+0	187.93240E-6	-217.58840E-15	0.0000000E+0	-16.711521E-9	1.5039568E+0	52.749409E-12	-1.4866059E+0	185.35461E-6
266.81365E-12	-228.56435E-15	0.0000000E+0	-16.713765E-9	2.9916432E+0	54.106435E-12	-1.0422170E+0	151.99420E-6	-232.91994E-15	0.0000000E+0	-16.713765E-9	-6.4635463E+0	49.220628E-12	-2.1074953E+0	226.00517E-6
264.56917E-12	-219.53626E-15	0.0000000E+0	-16.716010E-9	1.9810319E+0	49.550600E-12	-1.0432214E+0	192.80173E-6	-230.39372E-15	0.0000000E+0	-16.716010E-9	-3.5263734E+0	49.758885E-12	-1.6805316E+0	223.42958E-6
262.32466E-12	-241.47204E-15	0.0000000E+0	-16.718253E-9	1.6378982E+0	51.572448E-12	-1.0316440E+0	169.53924E-6	-247.36173E-15	0.0000000E+0	-16.718253E-9	351.84312E-3	46.659041E-12	-1.2692698E+0	246.84158E-6
260.08018E-12	-220.13999E-15	0.0000000E+0	-16.720499E-9	2.7658808E+0	63.242550E-12	-866.68277E-3	13.870427E-6	-236.07144E-15	0.0000000E+0	-16.720499E-9	1.7155780E+0	46.357744E-12	-1.2145340E+0	240.13159E-6
257.83570E-12	-228.47127E-15	0.0000000E+0	-16.722742E-9	2.0515656E+0	56.828080E-12	-801.25552E-3	45.703728E-6	-252.25717E-15	0.0000000E+0	-16.722742E-9	-2.4582832E+0	41.220583E-12	-1.5554000E+0	268.05923E-6
255.59121E-12	-234.59872E-15	0.0000000E+0	-16.724988E-9	1.5061837E+0	45.399889E-12	-811.14167E-3	168.23280E-6	-232.79385E-15	0.0000000E+0	-16.724988E-9	1.6386294E+0	44.476943E-12	-1.1751068E+0	205.95299E-6
253.34670E-12	-240.22863E-15	0.0000000E+0	-16.727231E-9	-1.8741666E+0	47.638980E-12	-1.1450912E+0	159.46587E-6	-226.33302E-15	0.0000000E+0	-16.727231E-9	-1.5372155E+0	49.933193E-12	-1.4415147E+0	136.13595E-6
251.10222E-12	-253.16384E-15	0.0000000E+0	-16.729476E-9	-2.1804051E+0	42.564490E-12	-1.2513421E+0	228.96272E-6	-266.28098E-15	0.0000000E+0	-16.729476E-9	-863.96348E-3	54.803537E-12	-1.3782277E+0	97.893433E-6
248.85774E-12	-256.33480E-15	0.0000000E+0	-16.731722E-9	-8.0840263E+0	47.482813E-12	-1.8707649E+0	195.38330E-6	-236.97556E-15	0.0000000E+0	-16.731722E-9	100.28868E-3	51.269357E-12	-1.2756146E+0	140.25791E-6
246.61326E-12	-240.20028E-15	0.0000000E+0	-16.733965E-9	-2.2276616E+0	52.346509E-12	-1.5523818E+0	138.42799E-6	-240.00609E-15	0.0000000E+0	-16.733965E-9	-957.86178E-3	52.242037E-12	-1.3956382E+0	137.73874E-6
244.36875E-12	-226.65160E-15	0.0000000E+0	-16.736211E-9	-470.66262E-3	45.685265E-12	-1.4168246E+0	219.80313E-6	-253.81411E-15	0.0000000E+0	-16.736211E-9	-2.6698668E+0	50.637626E-12	-1.5046276E+0	168.59788E-6
242.12427E-12	-234.78824E-15	0.0000000E+0	-16.738454E-9	3.9835260E+0	45.771317E-12	-978.46198E-3	229.95785E-6	-230.48257E-15	0.0000000E+0	-16.738454E-9	4.9464636E+0	45.476151E-12	-825.95348E-3	215.41820E-6
239.87978E-12	-239.51362E-15	0.0000000E+0	-16.740699E-9	-1.8571792E+0	51.955711E-12	-1.5041643E+0	169.92642E-6	-238.58750E-15	0.0000000E+0	-16.740699E-9	4.1978106E+0	49.816110E-12	-1.0230584E+0	156.03198E-6
237.63530E-12	-238.63572E-15	0.0000000E+0	-16.742943E-9	-1.5560983E+0	47.770468E-12	-1.4708196E+0	214.83496E-6	-239.46749E-15	0.0000000E+0	-16.742943E-9	5.6833310E+0	55.986243E-12	-1.0864720E+0	98.460609E-6
235.39079E-12	-241.31847E-15	0.0000000E+0	-16.745188E-9	-1.0039279E+0	47.118701E-12	-1.4684206E+0	231.42171E-6	-238.98391E-15	0.0000000E+0	-16.745188E-9	-4.1561375E+0	55.433016E-12	-1.9583130E+0	126.72001E-6
233.14634E-12	-236.96499E-15	0.0000000E+0	-16.747432E-9	-806.02086E-3	48.476868E-12	-1.4620214E+0	223.63834E-6	-257.80457E-15	0.0000000E+0	-16.747432E-9	-1.5779421E+0	50.932539E-12	-1.6406164E+0	186.61955E-6
230.90185E-12	-231.43873E-15	0.0000000E+0	-16.749677E-9	-1.4246386E+0	56.509217E-12	-1.6008886E+0	131.41910E-6	-243.40341E-15	0.0000000E+0	-16.749677E-9	2.5128314E+0	41.864949E-12	-1.2820722E+0	272.77565E-6
228.65732E-12	-249.08409E-15	0.0000000E+0	-16.751921E-9	-1.0434228E+0	59.108975E-12	-1.5503935E+0	67.111163E-6	-232.45793E-15	0.0000000E+0	-16.751921E-9	-5.2102132E+0	44.787576E-12	-1.9210156E+0	214.48951E-6
226.41283E-12	-230.45804E-15	0.0000000E+0	-16.754166E-9	-4.6229916E+0	53.706633E-12	-1.9382566E+0	111.10518E-6	-236.51019E-15	0.0000000E+0	-16.754166E-9	305.07368E-3	47.307495E-12	-1.3702445E+0	172.34808E-6
224.16835E-12	-237.77435E-15	0.0000000E+0	-16.756410E-9	-5.1849003E+0	50.208393E-12	-2.1644273E+0	143.10490E-6	-219.70591E-15	0.0000000E+0	-16.756410E-9	2.1610215E+0	52.941415E-12	-1.2449713E+0	116.51659E-6
221.92387E-12	-242.84199E-15	0.0000000E+0	-16.758655E-9	986.37861E-3	46.487494E-12	-1.6666662E+0	185.31212E-6	-236.34011E-15	0.0000000E+0	-16.758655E-9	1.1276687E+0	48.904256E-12	-1.4232562E+0	165.57978E-6
219.67939E-12	-227.72580E-15	0.0000000E+0	-16.760898E-9	-875.58484E-3	47.279281E-12	-1.8564132E+0	188.60392E-6	-234.93550E-15	0.0000000E+0	-16.760898E-9	2.2086284E+0	47.692919E-12	-1.3821337E+0	166.89426E-6
217.43490E-12	-257.13188E-15	0.0000000E+0	-16.763144E-9	1.8035512E+0	46.885183E-12	-1.5611103E+0	204.45413E-6	-248.93686E-15	0.0000000E+0	-16.763144E-9	1.0816087E+0	57.637273E-12	-1.4777036E+0	67.520741E-6
215.19042E-12	-232.68852E-15	0.0000000E+0	-16.765389E-9	579.13715E-3	47.984602E-12	-1.6506153E+0	203.86922E-6	-230.92596E-15	0.0000000E+0	-16.765389E-9	2.7311924E+0	52.021127E-12	-1.3502107E+0	149.25974E-6
212.94594E-12	-233.66329E-15	0.0000000E+0	-16.767633E-9	922.88518E-3	46.495002E-12	-1.6047715E+0	222.68748E-6	-239.71119E-15	0.0000000E+0	-16.767633E-9	-1.2567310E+0	47.386515E-12	-1.7677993E+0	197.35638E-6
210.70140E-12	-231.52715E-15	0.0000000E+0	-16.769878E-9	1.8093060E+0	47.957260E-12	-1.5172728E+0	225.29841E-6	-250.22936E-15	0.0000000E+0	-16.769878E-9	-1.9882257E+0	49.211562E-12	-1.7844161E+0	169.28173E-6
208.45692E-12	-240.93474E-15	0.0000000E+0	-16.772121E-9	1.3297422E+0	55.079743E-12	-1.5868678E+0	139.80393E-6	-222.08700E-15	0.0000000E+0	-16.772121E-9	-3.2976115E+0	49.674934E-12	-1.8837188E+0	160.54521E-6
206.21244E-12	-226.54541E-15	0.0000000E+0	-16.774367E-9	-1.5291132E+0	47.025529E-12	-1.8084837E+0	222.73984E-6	-237.90464E-15	0.0000000E+0	-16.774367E-9	-2.1712444E+0	52.108810E-12	-1.6955813E+0	145.45312E-6
203.96795E-12	-258.33342E-15	0.0000000E+0	-16.776610E-9	1.6527679E+0	43.135898E-12	-1.4644015E+0	279.83231E-6	-245.37791E-15	0.0000000E+0	-16.776610E-9	-618.90328E-3	50.125803E-12	-1.5436007E+0	165.52179E-6
201.72347E-12	-237.02253E-15	0.0000000E+0	-16.778856E-9	1.2102995E+0	45.313836E-12	-1.5125525E+0	281.22301E-6	-249.27109E-15	0.0000000E+0	-16.778856E-9	717.38625E-3	50.861870E-12	-1.3870187E+0	158.73575E-6
199.47899E-12	-248.24300E-15	0.0000000E+0	-16.781099E-9	-2.2332807E+0	46.906576E-12	-1.8203379E+0	273.15854E-6	-225.35106E-15	0.0000000E+0	-16.781099E-9	1.6046922E+0	52.293669E-12	-1.3776239E+0	154.26363E-6
197.23451E-12	-226.76117E-15	0.0000000E+0	-16.783344E-9	-1.3864256E+0	49.960362E-12	-1.8431479E+0	244.28585E-6	-225.80714E-15	0.0000000E+0	-16.783344E-9	3.5799465E+0	52.747695E-12	-1.2401577E+0	158.15668E-6
194.99002E-12	-226.92110E-15	0.0000000E+0	-16.785588E-9	-1.9539628E+0	48.150491E-12	-1.8981626E+0	266.42258E-6	-241.02993E-15	0.0000000E+0	-16.785588E-9	2.8818922E+0	60.780825E-12	-1.4144158E+0	98.377401E-6
192.74554E-12	-254.21771E-15	0.0000000E+0	-16.787833E-9	684.30865E-3	53.630572E-12	-1.7257643E+0	198.84392E-6	-255.96081E-15	0.0000000E+0	-16.787833E-9	420.33219E-3	52.471340E-12	-1.6672857E+0	211.92771E-6
190.50100E-12	-235.94665E-15	0.0000000E+0	-16.790077E-9	215.06889E-3	51.305037E-12	-1.7350326E+0	220.66782E-6	-232.80951E-15	0.0000000E+0	-16.790077E-9	3.5874593E+0	56.767712E-12	-1.4603088E+0	186.13895E-6
188.25652E-12	-207.20436E-15	0.0000000E+0	-16.792322E-9	2.4651570E+0	49.243123E-12	-1.5253941E+0	240.77104E-6	-253.15451E-15	0.0000000E+0	-16.792322E-9	907.40204E-3	43.955273E-12	-1.7421371E+0	325.48432E-6
186.01204E-12	-215.99974E-15	0.0000000E+0	-16.794568E-9	-5.5421710E+0	55.778569E-12	-2.3083432E+0	161.95337E-6	-229.15497E-15	0.0000000E+0	-16.794568E-9	-9.4261599E+0	37.702216E-12	-2.5351007E+0	364.48371E-6
183.76756E-12	-229.77011E-15	0.0000000E+0	-16.796811E-9	-49.366310E-3	54.004232E-12	-1.9292295E+0	165.27595E-6	-245.98208E-15	0.0000000E+0	-16.796811E-9	895.37495E-3	49.191085E-12	-1.5057439E+0	208.63170E-6
181.52307E-12	-239.79159E-15	0.0000000E+0	-16.799056E-9	682.07896E-3	51.888972E-12	-1.7912148E+0	172.14430E-6	-239.35159E-15	0.0000000E+0	-16.799056E-9	4.1445823E+0	51.824822E-12	-1.3062174E+0	190.58438E-6
179.27859E-12	-223.28305E-15	0.0000000E+0	-16.801300E-9	-1.2937280E+0	44.369858E-12	-2.0089612E+0	267.88391E-6	-235.98343E-15	0.0000000E+0	-16.801300E-9	-174.75148E-3	46.245771E-12	-1.7517601E+0	247.35939E-6
177.03411E-12	-236.84738E-15	0.0000000E+0	-16.803545E-9	-1.2245708E+0	45.270218E-12	-2.0456922E+0	273.96315E-6	-239.81866E-15	0.0000000E+0	-16.803545E-9	-1.5014938E+0	45.155123E-12	-1.8357859E+0	245.75193E-6
174.78963E-12	-231.46624E-15	0.0000000E+0	-16.805789E-9	-168.78201E-3	50.832557E-12	-1.9240341E+0	225.52558E-6	-218.78487E-15	0.0000000E+0	-16.805789E-9	3.7037704E+0	44.337978E-12	-1.4297464E+0	235.04092E-6
172.54509E-12	-232.80696E-15	0.0000000E+0	-16.808034E-9	-1.3287048E+0	56.603534E-12	-2.0723264E+0	145.35530E-6	-245.06569E-15	0.0000000E+0	-16.808034E-9	4.8044209E+0	47.873851E-12	-1.4718705E+0	177.80805E-6
170.30061E-12	-255.51149E-15	0.0000000E+0	-16.810278E-9	1.0312943E+0	48.467220E-12	-1.8235141E+0	221.42351E-6	-239.41081E-15	0.0000000E+0	-16.810278E-9	2.2747438E+0	52.869448E-12	-1.7800274E+0	128.28666E-6
168.05612E-12	-247.57158E-15	0.0000000E+0	-16.812523E-9	2.4073668E+0	47.079979E-12	-1.6783432E+0	251.07013E-6	-244.77715E-15	0.0000000E+0	-16.812523E-9	-2.9392514E+0	46.644192E-12	-2.2301538E+0	199.47592E-6
165.81164E-12	-232.77821E-15	0.0000000E+0	-16.814766E-9	-3.2169936E+0	51.148003E-12	-2.1724756E+0	204.39744E-6	-228.92227E-15	0.0000000E+0	-16.814766E-9	2.5817077E+0	48.376202E-12	-1.7356975E+0	173.34754E-6
163.56716E-12	-237.98333E-15	0.0000000E+0	-16.817012E-9	-159.84531E-3	56.406640E-12	-1.9558060E+0	133.91522E-6	-244.69294E-15	0.0000000E+0	-16.817012E-9	2.7242334E+0	49.089073E-12	-1.7741325E+0	161.41401E-6
161.32268E-12	-231.63546E-15	0.0000000E+0	-16.819255E-9	-1.6455988E+0	53.025483E-12	-2.0829196E+0	153.80535E-6	-236.36296E-15	0.0000000E+0	-16.819255E-9	3.7918694E+0	53.024168E-12	-1.7891046E+0	119.30271E-6
159.07820E-12	-228.68450E-15	0.0000000E+0	-16.821501E-9	-3.1677921E+0	53.293595E-12	-2.3238530E+0	134.16036E-6	-235.70295E-15	0.0000000E+0	-16.821501E-9	-686.95110E-3	58.677889E-12	-2.2160945E+0	77.750963E-6
156.83371E-12	-243.54810E-15	0.0000000E+0	-16.823744E-9	-3.0363367E+0	48.549203E-12	-2.4263871E+0	187.21996E-6	-229.61315E-15	0.0000000E+0	-16.823744E-9	4.1068687E+0	53.897480E-12	-1.8254465E+0	158.77336E-6
154.58923E-12	-219.92296E-15	0.0000000E+0	-16.825989E-9	3.9526649E+0	45.638372E-12	-1.8058654E+0	229.94708E-6	-220.40568E-15	0.0000000E+0	-16.825989E-9	1.2195766E+0	50.649516E-12	-2.1495752E+0	199.02374E-6
152.34469E-12	-251.81040E-15	0.0000000E+0	-16.828235E-9	-1.5237503E+0	46.757605E-12	-2.1955183E+0	230.79177E-6	-226.36052E-15	0.0000000E+0	-16.828235E-9	3.0789411E+0	52.749582E-12	-2.0961242E+0	179.22578E-6
150.10021E-12	-229.37029E-15	0.0000000E+0	-16.830478E-9	3.2522078E+0	47.463408E-12	-1.7431855E+0	236.56293E-6	-231.15486E-15	0.0000000E+0	-16.830478E-9	2.4049647E+0	52.444493E-12	-2.2301748E+0	191.22958E-6
147.85573E-12	-223.58639E-15	0.0000000E+0	-16.832724E-9	1.0656812E+0	50.412008E-12	-1.8826107E+0	201.83758E-6	-223.71331E-15	0.0000000E+0	-16.832724E-9	-3.5043666E+0	52.341107E-12	-2.7206302E+0	207.26459E-6
145.61125E-12	-234.51537E-15	0.0000000E+0	-16.834967E-9	3.2861028E+0	47.203783E-12	-1.5925090E+0	242.14972E-6	-216.60390E-15	0.0000000E+0	-16.834967E-9	-47.695518E-3	49.922337E-12	-2.3663523E+0	232.27929E-6
143.36676E-12	-250.49377E-15	0.0000000E+0	-16.837213E-9	3.8023527E+0	49.731386E-12	-1.4653771E+0	222.46396E-6	-244.52201E-15	0.0000000E+0	-16.837213E-9	-2.9181533E+0	51.029989E-12	-2.5843062E+0	222.55487E-6
141.12228E-12	-238.62853E-15	0.0000000E+0	-16.839456E-9	-27.061664E-3	50.900326E-12	-1.7580029E+0	209.76209E-6	-228.21572E-15	0.0000000E+0	-16.839456E-9	-609.23851E-3	43.926234E-12	-2.3113167E+0	292.40845E-6
138.87780E-12	-247.02666E-15	0.0000000E+0	-16.841701E-9	-1.6974868E+0	53.110693E-12	-1.9630028E+0	178.51769E-6	-231.66931E-15	0.0000000E+0	-16.841701E-9	-2.8531215E+0	50.276967E-12	-2.4643157E+0	209.11859E-6
136.63332E-12	-250.89783E-15	0.0000000E+0	-16.843945E-9	-131.49668E-3	54.251211E-12	-1.8010013E+0	149.57800E-6	-232.29631E-15	0.0000000E+0	-16.843945E-9	26.642803E-3	56.054460E-12	-2.1708910E+0	162.08706E-6
134.38878E-12	-232.27855E-15	0.0000000E+0	-16.846190E-9	-1.1742641E+0	51.830918E-12	-1.9449285E+0	164.92906E-6	-240.87042E-15	0.0000000E+0	-16.846190E-9	-2.0724387E+0	45.805987E-12	-2.2902415E+0	274.37118E-6
132.14430E-12	-231.15781E-15	0.0000000E+0	-16.848434E-9	-4.1145020E+0	50.847142E-12	-2.2746031E+0	166.07133E-6	-232.57131E-15	0.0000000E+0	-16.848434E-9	2.1846075E+0	42.076339E-12	-1.9058884E+0	289.69863E-6
129.89981E-12	-228.81650E-15	0.0000000E+0	-16.850679E-9	837.39972E-3	51.742388E-12	-1.8619914E+0	150.44904E-6	-238.12465E-15	0.0000000E+0	-16.850679E-9	444.77004E-3	49.420114E-12	-2.1173158E+0	200.67801E-6
127.65533E-12	-252.34854E-15	0.0000000E+0	-16.852923E-9	-283.74147E-3	47.341440E-12	-1.9600173E+0	202.77701E-6	-237.71341E-15	0.0000000E+0	-16.852923E-9	668.28591E-3	49.835129E-12	-2.1029220E+0	201.37646E-6
125.41085E-12	-250.68543E-15	0.0000000E+0	-16.855168E-9	-465.59507E-3	44.213466E-12	-1.9848626E+0	256.27695E-6	-247.52926E-15	0.0000000E+0	-16.855168E-9	3.8763552E+0	47.423773E-12	-1.8863091E+0	219.61512E-6
123.16637E-12	-246.53841E-15	0.0000000E+0	-16.857411E-9	-3.6446459E+0	50.265705E-12	-2.3423359E+0	202.74923E-6	-231.88932E-15	0.0000000E+0	-16.857411E-9	5.1301160E+0	52.946956E-12	-1.8673463E+0	159.73829E-6
120.92188E-12	-234.77853E-15	0.0000000E+0	-16.859657E-9	-6.6590533E+0	44.700584E-12	-2.7423077E+0	268.09369E-6	-225.11878E-15	0.0000000E+0	-16.859657E-9	1.2306762E+0	44.950273E-12	-2.3013277E+0	244.14290E-6
118.67740E-12	-223.83558E-15	0.0000000E+0	-16.861902E-9	-1.0618210E+0	47.797415E-12	-2.3950751E+0	245.44710E-6	-227.93142E-15	0.0000000E+0	-16.861902E-9	2.1959479E+0	48.475651E-12	-2.2911749E+0	191.83318E-6
116.43292E-12	-241.35105E-15	0.0000000E+0	-16.864146E-9	-1.8195035E+0	50.520910E-12	-2.4165416E+0	219.04186E-6	-226.46079E-15	0.0000000E+0	-16.864146E-9	-1.7270521E+0	50.133082E-12	-2.6331327E+0	172.50812E-6
114.18838E-12	-248.89962E-15	0.0000000E+0	-16.866391E-9	-777.68201E-3	55.089482E-12	-2.4004676E+0	165.15219E-6	-236.04648E-15	0.0000000E+0	-16.866391E-9	-705.04832E-3	56.090695E-12	-2.5230837E+0	123.59759E-6
111.94390E-12	-224.32678E-15	0.0000000E+0	-16.868634E-9	2.8756449E+0	51.306424E-12	-2.0680707E+0	190.08212E-6	-241.62817E-15	0.0000000E+0	-16.868634E-9	-1.6341498E+0	57.158899E-12	-2.5931470E+0	132.81713E-6
109.69942E-12	-225.48982E-15	0.0000000E+0	-16.870880E-9	-1.2928268E+0	49.303641E-12	-2.4062657E+0	211.50532E-6	-229.67492E-15	0.0000000E+0	-16.870880E-9	4.9257436E+0	42.457492E-12	-1.9968115E+0	292.63741E-6
107.45493E-12	-235.72664E-15	0.0000000E+0	-16.873123E-9	-4.7767620E+0	57.154455E-12	-2.8076727E+0	113.21271E-6	-247.40320E-15	0.0000000E+0	-16.873123E-9	1.1150950E+0	45.235517E-12	-2.4048092E+0	233.30773E-6
105.21045E-12	-233.11160E-15	0.0000000E+0	-16.875369E-9	-501.98698E-3	52.856032E-12	-2.4808562E+0	144.65643E-6	-237.52007E-15	0.0000000E+0	-16.875369E-9	2.5121627E+0	46.405543E-12	-2.3559828E+0	207.95922E-6
102.96597E-12	-233.94421E-15	0.0000000E+0	-16.877612E-9	2.0210588E+0	52.505309E-12	-2.2760093E+0	139.54613E-6	-229.64023E-15	0.0000000E+0	-16.877612E-9	544.59798E-3	48.510175E-12	-2.5162363E+0	171.50595E-6
100.72149E-12	-227.97413E-15	0.0000000E+0	-16.879858E-9	1.8487616E+0	46.262636E-12	-2.2075188E+0	208.00720E-6	-225.01894E-15	0.0000000E+0	-16.879858E-9	-2.4847412E+0	57.209185E-12	-2.7723725E+0	94.146730E-6
98.477004E-12	-253.21376E-15	0.0000000E+0	-16.882101E-9	-2.9725380E+0	47.733331E-12	-2.6735122E+0	205.29599E-6	-225.80713E-15	0.0000000E+0	-16.882101E-9	3.5065291E+0	53.276616E-12	-2.2607796E+0	153.16137E-6
96.232466E-12	-235.47828E-15	0.0000000E+0	-16.884346E-9	-989.16519E-3	49.781772E-12	-2.5360093E+0	187.23862E-6	-239.41970E-15	0.0000000E+0	-16.884346E-9	6.2242169E+0	49.478713E-12	-2.1576002E+0	195.98048E-6
93.987984E-12	-246.29981E-15	0.0000000E+0	-16.886590E-9	2.4900172E+0	49.658645E-12	-2.2213261E+0	187.22654E-6	-219.28368E-15	0.0000000E+0	-16.886590E-9	3.4363918E+0	51.533139E-12	-2.5879550E+0	178.14607E-6
91.743502E-12	-243.27521E-15	0.0000000E+0	-16.888835E-9	-2.9506712E+0	51.358764E-12	-2.6871738E+0	167.06985E-6	-215.42266E-15	0.0000000E+0	-16.888835E-9	-5.8446836E+0	49.682820E-12	-3.3454149E+0	199.76267E-6
89.499019E-12	-248.01412E-15	0.0000000E+0	-16.891081E-9	291.36425E-3	45.394681E-12	-2.4498885E+0	238.14813E-6	-219.89207E-15	0.0000000E+0	-16.891081E-9	-86.855844E-3	46.477728E-12	-2.7240338E+0	226.67109E-6
87.254537E-12	-235.71986E-15	0.0000000E+0	-16.893324E-9	-3.5049155E+0	51.849684E-12	-2.8415215E+0	173.65671E-6	-230.17203E-15	0.0000000E+0	-16.893324E-9	3.5619698E+0	46.370928E-12	-2.4615235E+0	208.48998E-6
85.010055E-12	-248.12455E-15	0.0000000E+0	-16.895569E-9	-2.5492821E+0	53.155095E-12	-2.9099572E+0	150.90694E-6	-229.56027E-15	0.0000000E+0	-16.895569E-9	903.67132E-3	46.680663E-12	-2.7512472E+0	198.17910E-6
82.765572E-12	-235.80787E-15	0.0000000E+0	-16.897813E-9	-707.05378E-3	51.245258E-12	-2.7628551E+0	160.46166E-6	-236.12519E-15	0.0000000E+0	-16.897813E-9	2.0464919E+0	47.474410E-12	-2.7187805E+0	174.95376E-6
80.521090E-12	-242.84538E-15	0.0000000E+0	-16.900058E-9	1.6997160E+0	45.040176E-12	-2.5541334E+0	236.56547E-6	-254.72034E-15	0.0000000E+0	-16.900058E-9	-1.1402646E+0	46.896695E-12	-3.0501435E+0	172.39538E-6
78.276607E-12	-218.60041E-15	0.0000000E+0	-16.902302E-9	-676.26274E-3	46.438412E-12	-2.7763381E+0	238.91235E-6	-227.00868E-15	0.0000000E+0	-16.902302E-9	-5.9343762E+0	47.049174E-12	-3.3390808E+0	156.51277E-6
76.032070E-12	-236.98613E-15	0.0000000E+0	-16.904547E-9	305.15242E-3	45.905734E-12	-2.6728518E+0	257.30184E-6	-230.75292E-15	0.0000000E+0	-16.904547E-9	-225.38818E-3	53.370534E-12	-2.7486205E+0	87.704298E-6
73.787587E-12	-240.56793E-15	0.0000000E+0	-16.906791E-9	-325.18849E-3	49.907956E-12	-2.7314155E+0	218.94080E-6	-235.78630E-15	0.0000000E+0	-16.906791E-9	-2.8548591E+0	49.226692E-12	-2.9710085E+0	141.24534E-6
71.543105E-12	-226.55090E-15	0.0000000E+0	-16.909036E-9	2.8537695E+0	56.089772E-12	-2.4635684E+0	140.17010E-6	-233.81050E-15	0.0000000E+0	-16.909036E-9	698.70728E-3	50.746407E-12	-2.6363399E+0	121.60698E-6
69.298622E-12	-246.19911E-15	0.0000000E+0	-16.911279E-9	2.5991380E+0	53.744991E-12	-2.4192238E+0	146.45883E-6	-226.35840E-15	0.0000000E+0	-16.911279E-9	8.6871910E+0	49.473380E-12	-2.1214762E+0	139.10640E-6
67.054140E-12	-231.70189E-15	0.0000000E+0	-16.913525E-9	114.18705E-3	49.835962E-12	-2.5366549E+0	180.65740E-6	-230.84895E-15	0.0000000E+0	-16.913525E-9	1.0581871E+0	47.474222E-12	-2.9249694E+0	152.84134E-6
64.809658E-12	-237.73244E-15	0.0000000E+0	-16.915768E-9	-5.7191863E+0	46.380181E-12	-3.1334138E+0	226.89137E-6	-228.39890E-15	0.0000000E+0	-16.915768E-9	2.8704979E+0	53.478569E-12	-2.7977686E+0	90.167014E-6
62.565175E-12	-225.38828E-15	0.0000000E+0	-16.918014E-9	1.9174387E+0	49.099235E-12	-2.5121460E+0	206.21062E-6	-221.45576E-15	0.0000000E+0	-16.918014E-9	4.3698740E+0	57.630740E-12	-2.7829070E+0	60.283848E-6
60.320693E-12	-242.61181E-15	0.0000000E+0	-16.920257E-9	-1.7082126E+0	52.016180E-12	-2.8191128E+0	171.75218E-6	-215.42944E-15	0.0000000E+0	-16.920257E-9	-436.48323E-3	54.559305E-12	-3.2677786E+0	121.60597E-6
58.076155E-12	-226.10287E-15	0.0000000E+0	-16.922503E-9	-3.1542609E+0	52.191321E-12	-3.0285704E+0	161.45561E-6	-232.88904E-15	0.0000000E+0	-16.922503E-9	-126.71815E-3	44.850582E-12	-3.2214484E+0	226.40916E-6
55.831673E-12	-248.42536E-15	0.0000000E+0	-16.924748E-9	-3.7832103E+0	52.119843E-12	-3.1247067E+0	152.46580E-6	-234.03135E-15	0.0000000E+0	-16.924748E-9	5.8724484E+0	47.627902E-12	-2.7812240E+0	182.93592E-6
53.587190E-12	-255.82542E-15	0.0000000E+0	-16.926991E-9	-602.94801E-3	54.446510E-12	-2.9721217E+0	122.16029E-6	-250.60675E-15	0.0000000E+0	-16.926991E-9	895.69610E-3	51.182350E-12	-3.3211555E+0	141.04870E-6
51.342708E-12	-239.45692E-15	0.0000000E+0	-16.929237E-9	586.14844E-3	51.271376E-12	-2.8379068E+0	137.35353E-6	-244.83510E-15	0.0000000E+0	-16.929237E-9	-4.4551343E-3	49.531421E-12	-3.4342165E+0	159.79966E-6
49.098225E-12	-222.26004E-15	0.0000000E+0	-16.931480E-9	1.9640781E+0	46.141556E-12	-2.7080412E+0	200.88624E-6	-228.62951E-15	0.0000000E+0	-16.931480E-9	-606.82535E-3	55.935270E-12	-3.4742918E+0	106.60991E-6
46.853743E-12	-232.04629E-15	0.0000000E+0	-16.933726E-9	-4.3719702E+0	50.441810E-12	-3.3137822E+0	160.10960E-6	-214.62050E-15	0.0000000E+0	-16.933726E-9	-3.7376099E+0	53.587690E-12	-3.6821668E+0	140.98491E-6
44.609261E-12	-227.89756E-15	0.0000000E+0	-16.935969E-9	4.8831120E+0	48.128754E-12	-2.5070930E+0	185.64756E-6	-242.11216E-15	0.0000000E+0	-16.935969E-9	-2.5523379E+0	53.931644E-12	-3.5262871E+0	158.76468E-6
42.364778E-12	-236.34941E-15	0.0000000E+0	-16.938214E-9	374.48773E-3	47.536333E-12	-2.8146510E+0	200.06434E-6	-253.38976E-15	0.0000000E+0	-16.938214E-9	-344.93354E-3	45.891135E-12	-3.2520669E+0	237.26714E-6
40.120296E-12	-251.52398E-15	0.0000000E+0	-16.940458E-9	-3.5302241E+0	45.105836E-12	-3.2140646E+0	240.34485E-6	-232.34583E-15	0.0000000E+0	-16.940458E-9	-1.0503194E+0	46.406965E-12	-3.3010330E+0	224.09060E-6
37.875758E-12	-230.41362E-15	0.0000000E+0	-16.942703E-9	-1.4732729E+0	48.406820E-12	-3.0795615E+0	215.46945E-6	-243.26125E-15	0.0000000E+0	-16.942703E-9	1.7918925E+0	49.925834E-12	-3.0477273E+0	179.22361E-6
35.631276E-12	-228.93157E-15	0.0000000E+0	-16.944947E-9	3.3734217E+0	51.669599E-12	-2.6861801E+0	174.79608E-6	-224.40505E-15	0.0000000E+0	-16.944947E-9	4.2175145E+0	57.165547E-12	-2.9441307E+0	113.46043E-6
33.386793E-12	-240.58273E-15	0.0000000E+0	-16.947192E-9	136.43900E-3	52.303648E-12	-2.8875527E+0	156.21600E-6	-223.96717E-15	0.0000000E+0	-16.947192E-9	1.7779552E+0	52.205823E-12	-3.2770951E+0	186.66494E-6
31.142311E-12	-247.48104E-15	0.0000000E+0	-16.949436E-9	-1.2117664E+0	49.871288E-12	-3.0330434E+0	179.77519E-6	-227.27649E-15	0.0000000E+0	-16.949436E-9	-2.7480338E+0	47.003110E-12	-3.6047232E+0	237.41230E-6
28.897829E-12	-230.49358E-15	0.0000000E+0	-16.951681E-9	-6.0664344E+0	53.765385E-12	-3.5923898E+0	135.31311E-6	-224.51886E-15	0.0000000E+0	-16.951681E-9	-1.6375747E+0	45.808170E-12	-3.4355540E+0	239.73617E-6
26.653346E-12	-234.48406E-15	0.0000000E+0	-16.953924E-9	-3.4292152E+0	53.944096E-12	-3.5265195E+0	110.76758E-6	-253.09488E-15	0.0000000E+0	-16.953924E-9	4.1872215E+0	48.960766E-12	-3.0095067E+0	199.59707E-6
24.408864E-12	-252.36378E-15	0.0000000E+0	-16.956170E-9	2.1401410E+0	43.493324E-12	-3.0435970E+0	232.74728E-6	-234.18577E-15	0.0000000E+0	-16.956170E-9	1.2598439E+0	42.747091E-12	-3.2971003E+0	252.03804E-6
22.164381E-12	-247.72176E-15	0.0000000E+0	-16.958415E-9	-6.2431121E+0	48.031589E-12	-3.8430376E+0	200.60271E-6	-224.84843E-15	0.0000000E+0	-16.958415E-9	2.0207019E+0	51.212680E-12	-3.2998271E+0	143.79647E-6
19.919844E-12	-262.12802E-15	0.0000000E+0	-16.960659E-9	-6.5876942E+0	51.225788E-12	-4.0104542E+0	168.43017E-6	-234.81575E-15	0.0000000E+0	-16.960659E-9	-162.26505E-3	46.410462E-12	-3.5015197E+0	195.98025E-6
17.675361E-12	-241.87862E-15	0.0000000E+0	-16.962904E-9	958.02975E-3	49.980801E-12	-3.4156005E+0	177.97307E-6	-245.70664E-15	0.0000000E+0	-16.962904E-9	2.4343352E+0	48.465943E-12	-3.2900264E+0	162.54417E-6
15.430879E-12	-240.26628E-15	0.0000000E+0	-16.965148E-9	4.3705225E+0	46.282967E-12	-3.0692346E+0	224.20569E-6	-225.30832E-15	0.0000000E+0	-16.965148E-9	3.6844873E+0	50.600135E-12	-3.2715421E+0	139.62630E-6
13.186396E-12	-243.88106E-15	0.0000000E+0	-16.967393E-9	4.8152161E+0	48.918810E-12	-2.9263885E+0	204.16954E-6	-235.96525E-15	0.0000000E+0	-16.967393E-9	-2.1024897E+0	52.758117E-12	-3.8057652E+0	121.25561E-6
10.941914E-12	-223.58639E-15	0.0000000E+0	-16.969636E-9	-2.5197504E+0	50.483610E-12	-3.5421567E+0	191.93282E-6	-235.85271E-15	0.0000000E+0	-16.969636E-9	1.3368261E+0	56.239888E-12	-3.4883709E+0	98.361343E-6
8.6974317E-12	-229.01451E-15	0.0000000E+0	-16.971882E-9	-3.9334390E+0	51.198486E-12	-3.7333119E+0	179.82908E-6	-222.82950E-15	0.0000000E+0	-16.971882E-9	6.2107844E+0	51.635741E-12	-3.2176704E+0	161.64540E-6
6.4529493E-12	-249.83463E-15	0.0000000E+0	-16.974125E-9	-289.70009E-3	57.774754E-12	-3.5130243E+0	94.830510E-6	-239.56903E-15	0.0000000E+0	-16.974125E-9	2.5016692E+0	48.372355E-12	-3.6807742E+0	197.43116E-6
4.2084669E-12	-240.68047E-15	0.0000000E+0	-16.976371E-9	-60.234517E-3	49.804539E-12	-3.5182519E+0	163.87737E-6	-251.26548E-15	0.0000000E+0	-16.976371E-9	-1.0564902E+0	50.249513E-12	-3.9725831E+0	176.89102E-6
1.9639845E-12	-225.48813E-15	0.0000000E+0	-16.978614E-9	-2.3437679E+0	45.840883E-12	-3.7166576E+0	217.09240E-6	-243.03576E-15	0.0000000E+0	-16.978614E-9	1.6756587E+0	49.943494E-12	-3.7084358E+0	176.73815E-6
-280.55336E-15	-246.63954E-15	0.0000000E+0	-16.980859E-9	-2.8239691E+0	48.796328E-12	-3.8414531E+0	192.06823E-6	-232.94067E-15	0.0000000E+0	-16.980859E-9	4.4150391E+0	49.124319E-12	-3.5839469E+0	189.59556E-6
-2.5250357E-12	-243.00698E-15	0.0000000E+0	-16.983103E-9	-935.91964E-3	49.505337E-12	-3.7098618E+0	188.55769E-6	-228.31259E-15	0.0000000E+0	-16.983103E-9	-676.29194E-3	49.196387E-12	-4.0675511E+0	179.77456E-6
-4.7695181E-12	-250.62875E-15	0.0000000E+0	-16.985348E-9	390.16861E-3	49.474348E-12	-3.6669464E+0	193.84355E-6	-239.57580E-15	0.0000000E+0	-16.985348E-9	-3.8359010E+0	49.148494E-12	-4.3013139E+0	181.84763E-6
-7.0140005E-12	-240.43086E-15	0.0000000E+0	-16.987594E-9	-2.8194015E+0	52.237378E-12	-3.9211977E+0	152.28718E-6	-226.34021E-15	0.0000000E+0	-16.987594E-9	484.98362E-3	49.784944E-12	-3.8283677E+0	170.08893E-6
-9.2584829E-12	-227.69661E-15	0.0000000E+0	-16.989837E-9	-396.41416E-3	45.383274E-12	-3.7907996E+0	230.69157E-6	-250.00385E-15	0.0000000E+0	-16.989837E-9	1.5986176E+0	49.849371E-12	-3.7602799E+0	170.85092E-6
-11.502965E-12	-254.58241E-15	0.0000000E+0	-16.992082E-9	296.27952E-3	49.161380E-12	-3.7499647E+0	202.91696E-6	-232.69993E-15	0.0000000E+0	-16.992082E-9	5.2311034E+0	48.200895E-12	-3.5058391E+0	183.65114E-6
-13.747448E-12	-216.26670E-15	0.0000000E+0	-16.994326E-9	1.6154892E+0	56.714099E-12	-3.5931504E+0	108.09512E-6	-232.75408E-15	0.0000000E+0	-16.994326E-9	-1.4207226E+0	47.196649E-12	-4.1387444E+0	192.42974E-6
-15.991930E-12	-234.15745E-15	0.0000000E+0	-16.996571E-9	-2.7611148E+0	44.035411E-12	-3.9419765E+0	242.36343E-6	-243.81845E-15	0.0000000E+0	-16.996571E-9	2.6624589E+0	49.151874E-12	-3.8058875E+0	161.54889E-6
-18.236468E-12	-227.33444E-15	0.0000000E+0	-16.998815E-9	-3.7655182E+0	50.738278E-12	-4.1333299E+0	185.45132E-6	-232.18463E-15	0.0000000E+0	-16.998815E-9	1.9573313E+0	56.417215E-12	-3.9416668E+0	88.143126E-6
-20.480950E-12	-228.13872E-15	0.0000000E+0	-17.001060E-9	-2.9108863E+0	51.740522E-12	-4.1792064E+0	165.25156E-6	-237.90762E-15	0.0000000E+0	-17.001060E-9	4.6007309E+0	54.938713E-12	-3.8788154E+0	130.42377E-6
-22.725433E-12	-242.56148E-15	0.0000000E+0	-17.003304E-9	331.37178E-3	45.839235E-12	-3.9326489E+0	234.52139E-6	-213.83654E-15	0.0000000E+0	-17.003304E-9	828.11403E-3	53.570707E-12	-4.2592654E+0	160.63248E-6
-24.969915E-12	-252.97218E-15	0.0000000E+0	-17.005549E-9	2.4967496E+0	42.030827E-12	-3.6794169E+0	301.00063E-6	-222.49315E-15	0.0000000E+0	-17.005549E-9	4.1551085E+0	47.509292E-12	-4.0213838E+0	227.65949E-6
-27.214397E-12	-222.47750E-15	0.0000000E+0	-17.007793E-9	-1.6159805E+0	45.749880E-12	-4.1011639E+0	282.92814E-6	-230.11576E-15	0.0000000E+0	-17.007793E-9	-3.7171628E+0	47.245464E-12	-4.6944366E+0	219.55963E-6
-29.458880E-12	-227.53370E-15	0.0000000E+0	-17.010038E-9	-1.5864637E+0	49.539029E-12	-4.1003003E+0	250.71806E-6	-233.71406E-15	0.0000000E+0	-17.010038E-9	5.5830717E+0	43.668208E-12	-3.9137011E+0	237.55412E-6
-31.703362E-12	-230.76815E-15	0.0000000E+0	-17.012281E-9	-289.92182E-3	51.967191E-12	-4.0538201E+0	216.03254E-6	-236.92734E-15	0.0000000E+0	-17.012281E-9	-3.1662819E+0	47.764494E-12	-4.6882496E+0	176.52714E-6
-33.947845E-12	-244.93284E-15	0.0000000E+0	-17.014527E-9	-5.9031925E+0	52.205261E-12	-4.5763793E+0	216.38755E-6	-243.34248E-15	0.0000000E+0	-17.014527E-9	-2.7040424E+0	48.194448E-12	-4.5546312E+0	170.56151E-6
-36.192327E-12	-228.70182E-15	0.0000000E+0	-17.016770E-9	-292.42411E-3	56.624837E-12	-4.1903758E+0	147.16965E-6	-245.06653E-15	0.0000000E+0	-17.016770E-9	-2.1952457E+0	44.149864E-12	-4.4816751E+0	198.32430E-6
-38.436865E-12	-249.02232E-15	0.0000000E+0	-17.019016E-9	367.41674E-3	52.698991E-12	-4.1355133E+0	173.95665E-6	-233.05489E-15	0.0000000E+0	-17.019016E-9	3.6271605E+0	50.927776E-12	-4.0387678E+0	115.61520E-6
-40.681347E-12	-236.12771E-15	0.0000000E+0	-17.021261E-9	339.31494E-3	48.126805E-12	-4.1198721E+0	224.93258E-6	-246.20545E-15	0.0000000E+0	-17.021261E-9	4.1334519E+0	57.003933E-12	-4.1103907E+0	60.391962E-6
-42.925830E-12	-243.15676E-15	0.0000000E+0	-17.023504E-9	-1.0358136E+0	54.101962E-12	-4.2681956E+0	151.00371E-6	-244.05155E-15	0.0000000E+0	-17.023504E-9	-1.8374578E+0	53.388665E-12	-4.6475043E+0	120.83341E-6
-45.170312E-12	-255.06854E-15	0.0000000E+0	-17.025750E-9	-4.7793565E+0	52.741471E-12	-4.6810303E+0	151.44917E-6	-233.26981E-15	0.0000000E+0	-17.025750E-9	2.2661896E+0	52.671860E-12	-4.2660403E+0	137.66877E-6
-47.414794E-12	-218.84960E-15	0.0000000E+0	-17.027993E-9	-4.2056665E+0	54.029503E-12	-4.8005748E+0	129.44192E-6	-217.83675E-15	0.0000000E+0	-17.027993E-9	2.9698672E+0	54.424101E-12	-4.3334498E+0	133.10478E-6
-49.659277E-12	-231.45692E-15	0.0000000E+0	-17.030239E-9	2.1981068E+0	55.350245E-12	-4.2467241E+0	93.688745E-6	-227.81337E-15	0.0000000E+0	-17.030239E-9	-3.1098964E+0	56.354144E-12	-4.8596082E+0	132.99382E-6
-51.903759E-12	-235.45968E-15	0.0000000E+0	-17.032482E-9	4.2368798E+0	45.894882E-12	-3.9586442E+0	194.81125E-6	-236.14549E-15	0.0000000E+0	-17.032482E-9	6.9254985E+0	50.005538E-12	-4.0431790E+0	215.72945E-6
-54.148241E-12	-258.72902E-15	0.0000000E+0	-17.034727E-9	-8.2144670E+0	48.543412E-12	-5.1156163E+0	179.60450E-6	-244.78138E-15	0.0000000E+0	-17.034727E-9	3.3091896E+0	50.839569E-12	-4.5024648E+0	205.28940E-6
-56.392724E-12	-254.29471E-15	0.0000000E+0	-17.036971E-9	-1.8037175E+0	51.820943E-12	-4.7244797E+0	142.90675E-6	-224.80951E-15	0.0000000E+0	-17.036971E-9	4.8162451E+0	51.606192E-12	-4.4778953E+0	206.44785E-6
-58.637262E-12	-231.94093E-15	0.0000000E+0	-17.039216E-9	-453.80402E-3	56.840380E-12	-4.6351585E+0	70.433867E-6	-248.53619E-15	0.0000000E+0	-17.039216E-9	4.2259998E+0	49.723108E-12	-4.6787996E+0	224.35679E-6
-60.881744E-12	-257.56765E-15	0.0000000E+0	-17.041460E-9	1.8136613E+0	48.543697E-12	-4.4015093E+0	153.01773E-6	-247.19124E-15	0.0000000E+0	-17.041460E-9	-131.53207E-3	45.784068E-12	-5.1041589E+0	259.72596E-6
-63.126226E-12	-217.29859E-15	0.0000000E+0	-17.043705E-9	-2.7486963E+0	49.833509E-12	-4.8313007E+0	140.59330E-6	-230.05865E-15	0.0000000E+0	-17.043705E-9	314.16994E-3	44.895691E-12	-5.0223832E+0	252.38743E-6
-65.370709E-12	-236.83255E-15	0.0000000E+0	-17.045949E-9	-2.0061929E+0	45.066440E-12	-4.7832575E+0	201.94323E-6	-239.55509E-15	0.0000000E+0	-17.045949E-9	3.3625627E+0	51.809106E-12	-4.7674122E+0	168.24037E-6
-67.615191E-12	-216.98509E-15	0.0000000E+0	-17.048194E-9	-1.5848168E+0	49.645218E-12	-4.8343840E+0	161.58637E-6	-234.20483E-15	0.0000000E+0	-17.048194E-9	3.6542361E+0	50.264872E-12	-4.9361496E+0	190.02442E-6
-69.859674E-12	-220.22545E-15	0.0000000E+0	-17.050438E-9	-3.4044676E+0	54.667312E-12	-5.0781951E+0	101.57761E-6	-248.46764E-15	0.0000000E+0	-17.050438E-9	-3.9256122E+0	53.993792E-12	-5.5908790E+0	152.97497E-6
-72.104156E-12	-240.58994E-15	0.0000000E+0	-17.052683E-9	1.8758807E+0	53.587069E-12	-4.6509151E+0	96.794407E-6	-242.03008E-15	0.0000000E+0	-17.052683E-9	-930.39721E-3	58.308788E-12	-5.2681980E+0	130.59027E-6
-74.348638E-12	-223.48867E-15	0.0000000E+0	-17.054928E-9	5.0218439E+0	46.558986E-12	-4.2343698E+0	168.77777E-6	-235.10683E-15	0.0000000E+0	-17.054928E-9	1.5315022E+0	53.442348E-12	-5.0047665E+0	209.32370E-6
-76.593176E-12	-254.89973E-15	0.0000000E+0	-17.057172E-9	-716.06374E-3	44.351980E-12	-4.6561804E+0	209.09065E-6	-251.85567E-15	0.0000000E+0	-17.057172E-9	4.3972259E+0	50.771047E-12	-4.9003806E+0	247.19170E-6
-78.837659E-12	-243.34121E-15	0.0000000E+0	-17.059417E-9	-3.5662820E+0	46.841538E-12	-4.9794559E+0	199.33979E-6	-246.18515E-15	0.0000000E+0	-17.059417E-9	2.9837999E+0	43.868038E-12	-5.0670729E+0	313.43871E-6
-81.082141E-12	-227.30441E-15	0.0000000E+0	-17.061661E-9	-3.3920138E+0	50.537324E-12	-5.0555840E+0	162.88036E-6	-226.03687E-15	0.0000000E+0	-17.061661E-9	11.370634E+0	45.010450E-12	-4.5459323E+0	276.27076E-6
-83.326623E-12	-230.98139E-15	0.0000000E+0	-17.063906E-9	-6.0265117E+0	49.969327E-12	-5.4111009E+0	173.29544E-6	-209.03036E-15	0.0000000E+0	-17.063906E-9	4.4903674E+0	50.468511E-12	-5.3855486E+0	217.03055E-6
-85.571106E-12	-241.54694E-15	0.0000000E+0	-17.066149E-9	-2.2785945E+0	55.364612E-12	-5.2176175E+0	99.773446E-6	-242.27167E-15	0.0000000E+0	-17.066149E-9	-4.1170869E+0	47.048067E-12	-6.1244674E+0	249.29101E-6
-87.815588E-12	-237.04834E-15	0.0000000E+0	-17.068395E-9	-4.6567736E+0	52.478768E-12	-5.5743313E+0	113.67133E-6	-211.74738E-15	0.0000000E+0	-17.068395E-9	709.64724E-3	50.047633E-12	-5.6942644E+0	208.95030E-6
-90.060071E-12	-221.58692E-15	0.0000000E+0	-17.070638E-9	-330.53276E-3	47.522632E-12	-5.2476072E+0	167.92095E-6	-220.46999E-15	0.0000000E+0	-17.070638E-9	-3.1400437E+0	45.714783E-12	-5.9706845E+0	248.48781E-6
-92.304553E-12	-219.15675E-15	0.0000000E+0	-17.072884E-9	-910.84874E-3	45.214173E-12	-5.3067646E+0	207.56772E-6	-224.76002E-15	0.0000000E+0	-17.072884E-9	-126.64796E-3	51.100329E-12	-5.6216197E+0	186.21692E-6
-94.549035E-12	-228.70269E-15	0.0000000E+0	-17.075127E-9	-1.6834543E+0	45.805370E-12	-5.4701190E+0	221.57386E-6	-239.92061E-15	0.0000000E+0	-17.075127E-9	2.0457380E+0	51.095142E-12	-5.4489779E+0	187.82144E-6
-96.793573E-12	-230.25749E-15	0.0000000E+0	-17.077372E-9	-2.3640754E+0	47.213976E-12	-5.5430698E+0	217.92891E-6	-235.37211E-15	0.0000000E+0	-17.077372E-9	2.5941796E+0	53.897803E-12	-5.4992280E+0	169.99105E-6
-99.038056E-12	-205.03481E-15	0.0000000E+0	-17.079616E-9	-2.9471028E+0	51.730863E-12	-5.6846542E+0	174.48590E-6	-242.71251E-15	0.0000000E+0	-17.079616E-9	1.5177199E+0	49.199894E-12	-5.6176043E+0	228.51239E-6
-101.28254E-12	-245.78958E-15	0.0000000E+0	-17.081861E-9	1.2841126E+0	51.070467E-12	-5.3709207E+0	173.82739E-6	-229.31573E-15	0.0000000E+0	-17.081861E-9	2.3940935E+0	49.165904E-12	-5.6488519E+0	223.41264E-6
-103.52702E-12	-237.06314E-15	0.0000000E+0	-17.084107E-9	1.6800799E+0	54.075237E-12	-5.2710838E+0	127.41494E-6	-236.27750E-15	0.0000000E+0	-17.084107E-9	2.6580100E+0	51.240009E-12	-5.6749310E+0	205.61524E-6
-105.77150E-12	-249.38447E-15	0.0000000E+0	-17.086350E-9	-1.9333615E+0	48.913925E-12	-5.5763831E+0	177.97961E-6	-228.36423E-15	0.0000000E+0	-17.086350E-9	2.2923346E+0	51.843793E-12	-5.8135757E+0	195.63703E-6
-108.01599E-12	-240.50109E-15	0.0000000E+0	-17.088595E-9	-7.4002314E+0	51.150514E-12	-6.1887808E+0	151.80073E-6	-223.19547E-15	0.0000000E+0	-17.088595E-9	629.60631E-3	46.789947E-12	-5.9469123E+0	252.98205E-6
-110.26047E-12	-223.49162E-15	0.0000000E+0	-17.090839E-9	-5.4097133E+0	44.855928E-12	-6.2215204E+0	230.17095E-6	-234.83269E-15	0.0000000E+0	-17.090839E-9	3.8910799E+0	45.713548E-12	-5.7325282E+0	252.50640E-6
-112.50495E-12	-223.35031E-15	0.0000000E+0	-17.093084E-9	-2.0468616E+0	48.190597E-12	-6.0366716E+0	204.49380E-6	-221.07076E-15	0.0000000E+0	-17.093084E-9	-294.67228E-3	47.637026E-12	-6.1253257E+0	215.65612E-6
-114.74949E-12	-237.00771E-15	0.0000000E+0	-17.095328E-9	-1.8290373E+0	46.256218E-12	-6.0608287E+0	234.27309E-6	-245.72778E-15	0.0000000E+0	-17.095328E-9	4.5924678E+0	52.636531E-12	-5.7771230E+0	159.52019E-6
-116.99397E-12	-234.96764E-15	0.0000000E+0	-17.097573E-9	-680.89789E-3	46.861737E-12	-6.0035667E+0	236.56005E-6	-247.83431E-15	0.0000000E+0	-17.097573E-9	5.6175098E+0	58.673837E-12	-5.8461123E+0	121.35881E-6
-119.23845E-12	-248.95166E-15	0.0000000E+0	-17.099817E-9	-1.8570465E+0	44.990425E-12	-6.1367693E+0	279.67943E-6	-249.15261E-15	0.0000000E+0	-17.099817E-9	-2.1999953E+0	56.482208E-12	-6.5737257E+0	170.86210E-6
-121.48293E-12	-245.89323E-15	0.0000000E+0	-17.102062E-9	-1.3733277E+0	53.282389E-12	-6.1613107E+0	190.29361E-6	-233.86002E-15	0.0000000E+0	-17.102062E-9	1.2374847E+0	45.488852E-12	-6.2532125E+0	294.66939E-6
-123.72742E-12	-230.29178E-15	0.0000000E+0	-17.104306E-9	937.74551E-3	51.999721E-12	-5.9191518E+0	193.47901E-6	-252.22839E-15	0.0000000E+0	-17.104306E-9	2.0438437E+0	41.427840E-12	-6.2351804E+0	312.18724E-6
-125.97190E-12	-238.77322E-15	0.0000000E+0	-17.106551E-9	3.9475195E+0	57.230849E-12	-5.6014209E+0	125.58744E-6	-234.32878E-15	0.0000000E+0	-17.106551E-9	3.8284235E+0	47.881376E-12	-6.1458774E+0	223.52352E-6
-128.21638E-12	-231.24918E-15	0.0000000E+0	-17.108794E-9	-3.6263030E+0	53.349679E-12	-6.2317638E+0	140.50602E-6	-249.81517E-15	0.0000000E+0	-17.108794E-9	4.6478496E+0	51.042962E-12	-6.2272787E+0	182.19162E-6
-130.46086E-12	-233.79738E-15	0.0000000E+0	-17.111040E-9	-8.8759527E+0	43.413894E-12	-6.8738823E+0	255.57581E-6	-227.32768E-15	0.0000000E+0	-17.111040E-9	6.2980804E+0	49.926469E-12	-6.2182775E+0	195.24999E-6
-132.70535E-12	-238.22364E-15	0.0000000E+0	-17.113283E-9	-5.1778374E+0	44.917375E-12	-6.7418938E+0	263.04033E-6	-241.71743E-15	0.0000000E+0	-17.113283E-9	6.1209579E+0	53.900245E-12	-6.4407959E+0	162.52504E-6
-134.94988E-12	-247.33254E-15	0.0000000E+0	-17.115529E-9	-1.4871558E+0	58.542983E-12	-6.5042796E+0	108.46953E-6	-233.30155E-15	0.0000000E+0	-17.115529E-9	4.9766488E+0	53.687506E-12	-6.7278175E+0	184.20210E-6
-137.19437E-12	-246.39245E-15	0.0000000E+0	-17.117774E-9	-660.21413E-3	57.557091E-12	-6.4595828E+0	85.449712E-6	-248.99269E-15	0.0000000E+0	-17.117774E-9	-1.2221506E+0	51.118540E-12	-7.2679820E+0	218.17938E-6
-139.43885E-12	-232.65889E-15	0.0000000E+0	-17.120017E-9	-5.3360338E+0	54.688146E-12	-6.9538107E+0	99.859084E-6	-244.24955E-15	0.0000000E+0	-17.120017E-9	1.4404056E+0	47.644191E-12	-7.0671139E+0	251.20264E-6
-141.68333E-12	-218.11598E-15	0.0000000E+0	-17.122263E-9	-3.6673410E+0	48.846829E-12	-6.9664493E+0	150.62175E-6	-243.89163E-15	0.0000000E+0	-17.122263E-9	2.1193554E+0	49.821636E-12	-6.9878531E+0	219.15563E-6
-143.92781E-12	-223.25597E-15	0.0000000E+0	-17.124506E-9	-4.4910760E+0	47.926958E-12	-7.1267819E+0	169.81550E-6	-241.00920E-15	0.0000000E+0	-17.124506E-9	1.1115681E+0	48.201564E-12	-7.1419606E+0	235.54712E-6
-146.17230E-12	-228.15227E-15	0.0000000E+0	-17.126752E-9	-5.0341659E+0	46.135949E-12	-7.3090849E+0	197.66945E-6	-232.44693E-15	0.0000000E+0	-17.126752E-9	1.7454275E+0	50.536717E-12	-7.1296029E+0	206.24620E-6
-148.41678E-12	-248.99988E-15	0.0000000E+0	-17.128995E-9	-3.4750681E+0	44.362420E-12	-7.2710896E+0	241.51696E-6	-239.29445E-15	0.0000000E+0	-17.128995E-9	2.9570570E+0	52.943785E-12	-7.0964246E+0	187.45290E-6
-150.66126E-12	-228.13744E-15	0.0000000E+0	-17.131240E-9	-903.30505E-3	48.126329E-12	-7.1076350E+0	214.03747E-6	-235.97668E-15	0.0000000E+0	-17.131240E-9	5.9913750E+0	57.071303E-12	-6.9902320E+0	160.73762E-6
-152.90580E-12	-249.41916E-15	0.0000000E+0	-17.133484E-9	-6.4399862E+0	44.740989E-12	-7.6503592E+0	259.37616E-6	-257.28928E-15	0.0000000E+0	-17.133484E-9	1.8113645E+0	51.687401E-12	-7.4522104E+0	241.20224E-6
-155.15028E-12	-239.80004E-15	0.0000000E+0	-17.135729E-9	-6.9926915E+0	43.661519E-12	-7.9325657E+0	295.23100E-6	-258.62027E-15	0.0000000E+0	-17.135729E-9	7.2487183E+0	50.165795E-12	-7.0644503E+0	254.07723E-6
-157.39476E-12	-223.86901E-15	0.0000000E+0	-17.137973E-9	-4.1568160E+0	47.852420E-12	-7.8703847E+0	262.37339E-6	-219.79518E-15	0.0000000E+0	-17.137973E-9	3.7821629E+0	55.583548E-12	-7.5536146E+0	204.98758E-6
-159.63925E-12	-246.07768E-15	0.0000000E+0	-17.140218E-9	-1.4631538E+0	48.445095E-12	-7.6921196E+0	268.41773E-6	-232.30013E-15	0.0000000E+0	-17.140218E-9	2.6737742E+0	50.389849E-12	-7.7078104E+0	280.47411E-6
-161.88373E-12	-243.47110E-15	0.0000000E+0	-17.142462E-9	-3.6860442E+0	49.684031E-12	-7.9645796E+0	258.38966E-6	-225.15940E-15	0.0000000E+0	-17.142462E-9	2.6870637E+0	47.759144E-12	-7.8429556E+0	303.57065E-6
-164.12821E-12	-239.66381E-15	0.0000000E+0	-17.144707E-9	2.1647701E+0	48.165506E-12	-7.4844398E+0	276.87222E-6	-235.95256E-15	0.0000000E+0	-17.144707E-9	-2.8130043E+0	49.758996E-12	-8.3165722E+0	278.59278E-6
-166.37269E-12	-219.19695E-15	0.0000000E+0	-17.146951E-9	-286.31821E-3	51.196658E-12	-7.6412992E+0	251.44898E-6	-244.35914E-15	0.0000000E+0	-17.146951E-9	4.0530505E+0	50.530240E-12	-7.7189560E+0	261.97042E-6
-168.61718E-12	-233.41916E-15	0.0000000E+0	-17.149196E-9	2.1571145E+0	56.407729E-12	-7.4371943E+0	175.11890E-6	-234.61606E-15	0.0000000E+0	-17.149196E-9	9.0603819E+0	50.302235E-12	-7.5018997E+0	271.86330E-6
-170.86166E-12	-246.16526E-15	0.0000000E+0	-17.151441E-9	4.1549592E+0	47.568633E-12	-7.1474509E+0	262.05814E-6	-249.72377E-15	0.0000000E+0	-17.151441E-9	4.3606510E+0	50.268879E-12	-8.0972824E+0	270.79941E-6
-173.10620E-12	-243.59760E-15	0.0000000E+0	-17.153685E-9	-6.1030264E+0	51.481111E-12	-8.0491514E+0	227.00032E-6	-218.25941E-15	0.0000000E+0	-17.153685E-9	2.5921926E+0	49.476909E-12	-8.3659868E+0	282.35410E-6
-175.35068E-12	-223.03681E-15	0.0000000E+0	-17.155930E-9	-8.0506983E+0	47.193780E-12	-8.4771910E+0	273.90386E-6	-248.19816E-15	0.0000000E+0	-17.155930E-9	2.4196241E+0	51.301016E-12	-8.4300861E+0	262.47386E-6
-177.59516E-12	-240.47230E-15	0.0000000E+0	-17.158174E-9	-2.1288998E+0	51.695544E-12	-8.0630293E+0	225.97790E-6	-232.23792E-15	0.0000000E+0	-17.158174E-9	9.9269867E+0	54.906829E-12	-7.9399033E+0	232.37086E-6
-179.83964E-12	-223.91385E-15	0.0000000E+0	-17.160419E-9	93.998082E-3	51.552661E-12	-7.9369164E+0	224.38024E-6	-257.78132E-15	0.0000000E+0	-17.160419E-9	7.9376044E+0	55.143265E-12	-8.3602037E+0	251.71853E-6
-182.08413E-12	-217.81729E-15	0.0000000E+0	-17.162662E-9	-2.6072888E+0	47.793939E-12	-8.1937857E+0	266.40572E-6	-240.76973E-15	0.0000000E+0	-17.162662E-9	5.2009268E+0	51.196280E-12	-8.7929955E+0	306.91727E-6
-184.32861E-12	-205.80227E-15	0.0000000E+0	-17.164908E-9	-6.5850754E+0	49.819090E-12	-8.6863222E+0	246.69641E-6	-255.15950E-15	0.0000000E+0	-17.164908E-9	564.94248E-3	54.232768E-12	-9.2986488E+0	284.68078E-6
-186.57309E-12	-257.22878E-15	0.0000000E+0	-17.167151E-9	-4.4777031E+0	57.937415E-12	-8.6582966E+0	149.06468E-6	-253.71765E-15	0.0000000E+0	-17.167151E-9	4.2692986E+0	47.921708E-12	-9.0496798E+0	360.62548E-6
-188.81757E-12	-242.35502E-15	0.0000000E+0	-17.169397E-9	-2.9721551E+0	58.414017E-12	-8.6416092E+0	104.74621E-6	-228.13915E-15	0.0000000E+0	-17.169397E-9	184.94675E-3	42.229081E-12	-9.4548912E+0	398.38007E-6
-191.06211E-12	-239.13537E-15	0.0000000E+0	-17.171640E-9	-5.2288017E+0	47.481182E-12	-8.9394922E+0	216.16262E-6	-236.79913E-15	0.0000000E+0	-17.171640E-9	1.1311504E+0	45.413319E-12	-9.3733826E+0	337.81846E-6
-193.30659E-12	-231.76789E-15	0.0000000E+0	-17.173885E-9	-3.5968347E+0	48.582874E-12	-8.9323463E+0	207.24580E-6	-246.63488E-15	0.0000000E+0	-17.173885E-9	2.6497929E+0	50.099005E-12	-9.3182249E+0	281.13317E-6
-195.55108E-12	-240.48585E-15	0.0000000E+0	-17.176129E-9	-7.1705151E+0	45.951559E-12	-9.3336554E+0	250.76594E-6	-240.16051E-15	0.0000000E+0	-17.176129E-9	4.5207915E+0	48.504770E-12	-9.2533350E+0	292.65406E-6
-197.79556E-12	-218.98837E-15	0.0000000E+0	-17.178374E-9	967.10742E-3	48.188977E-12	-8.7636528E+0	237.12129E-6	-252.65234E-15	0.0000000E+0	-17.178374E-9	6.7070870E+0	56.381344E-12	-9.2345715E+0	223.42190E-6
-200.04004E-12	-241.13231E-15	0.0000000E+0	-17.180620E-9	145.60802E-3	46.553272E-12	-8.8528166E+0	264.05865E-6	-235.97457E-15	0.0000000E+0	-17.180620E-9	4.8874755E+0	46.216576E-12	-9.5263281E+0	338.33858E-6
-202.28452E-12	-241.24867E-15	0.0000000E+0	-17.182863E-9	-7.1712894E+0	51.882543E-12	-9.5250320E+0	209.95268E-6	-213.59539E-15	0.0000000E+0	-17.182863E-9	6.5241094E+0	48.145637E-12	-9.5616217E+0	301.47430E-6
-204.52900E-12	-233.78174E-15	0.0000000E+0	-17.185108E-9	-3.2818713E+0	47.414499E-12	-9.3795576E+0	254.98861E-6	-233.95055E-15	0.0000000E+0	-17.185108E-9	6.4153895E+0	53.115311E-12	-9.8080473E+0	252.80824E-6
-206.77349E-12	-237.90380E-15	0.0000000E+0	-17.187352E-9	-4.7358255E+0	48.951197E-12	-9.6091785E+0	251.08803E-6	-239.42900E-15	0.0000000E+0	-17.187352E-9	2.2822812E+0	51.620874E-12	-10.275210E+0	280.76820E-6
-209.01797E-12	-222.15174E-15	0.0000000E+0	-17.189597E-9	-6.5522084E+0	50.308639E-12	-9.9475641E+0	243.12100E-6	-261.83694E-15	0.0000000E+0	-17.189597E-9	3.3424573E+0	42.964573E-12	-10.257334E+0	364.44794E-6
-211.26251E-12	-228.01517E-15	0.0000000E+0	-17.191841E-9	-2.2318430E+0	47.014032E-12	-9.6395998E+0	279.43004E-6	-257.53550E-15	0.0000000E+0	-17.191841E-9	8.1086531E+0	48.998246E-12	-10.028624E+0	278.80745E-6
-213.50699E-12	-222.48765E-15	0.0000000E+0	-17.194086E-9	-6.7343082E+0	47.533127E-12	-10.182527E+0	286.60899E-6	-238.21773E-15	0.0000000E+0	-17.194086E-9	8.9747591E+0	50.517649E-12	-10.191746E+0	262.82069E-6
-215.75147E-12	-240.67581E-15	0.0000000E+0	-17.196330E-9	-876.56468E-3	52.708147E-12	-9.7799311E+0	228.06373E-6	-224.19351E-15	0.0000000E+0	-17.196330E-9	2.3721795E+0	52.963755E-12	-10.922873E+0	243.10558E-6
-217.99595E-12	-233.30367E-15	0.0000000E+0	-17.198575E-9	-5.5915465E+0	52.733776E-12	-10.331575E+0	216.34864E-6	-241.08450E-15	0.0000000E+0	-17.198575E-9	3.6096945E+0	45.583818E-12	-10.899319E+0	324.45128E-6
-220.24044E-12	-218.17606E-15	0.0000000E+0	-17.200819E-9	-1.1631770E+0	52.348671E-12	-10.038339E+0	212.28332E-6	-238.83415E-15	0.0000000E+0	-17.200819E-9	2.6327112E+0	45.362242E-12	-11.082571E+0	305.22275E-6
-222.48492E-12	-252.19201E-15	0.0000000E+0	-17.203064E-9	-2.9135752E+0	47.502599E-12	-10.186810E+0	266.88760E-6	-231.94177E-15	0.0000000E+0	-17.203064E-9	7.0377970E+0	52.441392E-12	-10.858968E+0	226.06734E-6
-224.72940E-12	-251.05563E-15	0.0000000E+0	-17.205307E-9	-2.7326596E+0	46.777818E-12	-10.290212E+0	287.18603E-6	-240.88904E-15	0.0000000E+0	-17.205307E-9	8.7200851E+0	52.595938E-12	-10.901787E+0	235.94004E-6
-226.97388E-12	-240.13555E-15	0.0000000E+0	-17.207553E-9	-7.3525300E+0	51.341983E-12	-10.857646E+0	247.13247E-6	-219.26083E-15	0.0000000E+0	-17.207553E-9	4.7668452E+0	45.791582E-12	-11.451286E+0	305.93673E-6
-229.21842E-12	-233.81560E-15	0.0000000E+0	-17.209796E-9	-5.5799079E+0	55.794772E-12	-10.863200E+0	180.29584E-6	-234.02967E-15	0.0000000E+0	-17.209796E-9	5.8284111E+0	52.084000E-12	-11.545956E+0	233.69394E-6
-231.46290E-12	-232.71221E-15	0.0000000E+0	-17.212042E-9	-5.4840183E+0	47.295674E-12	-11.053609E+0	263.68766E-6	-242.34529E-15	0.0000000E+0	-17.212042E-9	3.8801098E+0	49.445732E-12	-11.825354E+0	266.91650E-6
-233.70733E-12	-242.21245E-15	0.0000000E+0	-17.214287E-9	-8.6653042E+0	45.274624E-12	-11.487967E+0	305.44962E-6	-221.70116E-15	0.0000000E+0	-17.214287E-9	4.3770261E+0	52.302419E-12	-11.909101E+0	236.25324E-6
-235.95187E-12	-254.57650E-15	0.0000000E+0	-17.216530E-9	-4.0575643E+0	50.995944E-12	-11.280288E+0	241.89349E-6	-226.60761E-15	0.0000000E+0	-17.216530E-9	1.9976847E+0	54.678800E-12	-12.226169E+0	230.44934E-6
-238.19630E-12	-245.65248E-15	0.0000000E+0	-17.218776E-9	-1.8853785E+0	51.574120E-12	-11.169573E+0	231.90254E-6	-233.59092E-15	0.0000000E+0	-17.218776E-9	4.1287789E+0	44.970107E-12	-12.111296E+0	333.58956E-6
-240.44083E-12	-236.40356E-15	0.0000000E+0	-17.221019E-9	-6.2890382E+0	56.478495E-12	-11.653486E+0	161.89103E-6	-233.27786E-15	0.0000000E+0	-17.221019E-9	1.4360362E+0	45.540266E-12	-12.447080E+0	309.01603E-6
-242.68537E-12	-238.89126E-15	0.0000000E+0	-17.223265E-9	-6.4216199E+0	50.791343E-12	-11.890573E+0	207.33215E-6	-240.45327E-15	0.0000000E+0	-17.223265E-9	3.0120461E+0	45.817745E-12	-12.364437E+0	290.30576E-6
-244.92980E-12	-236.75387E-15	0.0000000E+0	-17.225508E-9	-1.6671343E+0	47.257556E-12	-11.585618E+0	251.71490E-6	-236.68280E-15	0.0000000E+0	-17.225508E-9	11.361533E+0	45.820195E-12	-11.808805E+0	273.32728E-6
-247.17434E-12	-228.43657E-15	0.0000000E+0	-17.227753E-9	-5.3192978E+0	53.923099E-12	-11.989823E+0	183.46547E-6	-232.77905E-15	0.0000000E+0	-17.227753E-9	4.5458794E+0	49.998752E-12	-12.722242E+0	223.12792E-6
-249.41876E-12	-232.54044E-15	0.0000000E+0	-17.229997E-9	-4.6912389E+0	55.666950E-12	-12.091382E+0	143.51498E-6	-233.49999E-15	0.0000000E+0	-17.229997E-9	4.1172256E+0	45.039389E-12	-12.790327E+0	268.55239E-6
-251.66330E-12	-239.59315E-15	0.0000000E+0	-17.232242E-9	-9.6921434E+0	54.183463E-12	-12.701895E+0	138.36891E-6	-248.08224E-15	0.0000000E+0	-17.232242E-9	7.5723825E+0	43.615642E-12	-12.667318E+0	259.87352E-6
-253.90773E-12	-241.47798E-15	0.0000000E+0	-17.234486E-9	-5.7832918E+0	52.785130E-12	-12.650148E+0	139.44898E-6	-236.27324E-15	0.0000000E+0	-17.234486E-9	8.2707891E+0	54.112343E-12	-12.861183E+0	135.80848E-6
-256.15227E-12	-242.53145E-15	0.0000000E+0	-17.236731E-9	-8.4404964E+0	50.363668E-12	-13.089562E+0	162.37839E-6	-228.67306E-15	0.0000000E+0	-17.236731E-9	5.4518805E+0	53.979491E-12	-13.288075E+0	159.92524E-6
-258.39680E-12	-231.51194E-15	0.0000000E+0	-17.238975E-9	-5.7120008E+0	54.565952E-12	-13.055135E+0	109.14292E-6	-225.03459E-15	0.0000000E+0	-17.238975E-9	3.9029284E+0	49.967520E-12	-13.569089E+0	209.89589E-6
-260.64123E-12	-247.22634E-15	0.0000000E+0	-17.241220E-9	-10.042568E+0	47.521279E-12	-13.648595E+0	182.55968E-6	-229.83652E-15	0.0000000E+0	-17.241220E-9	3.0202732E+0	50.886149E-12	-13.790863E+0	205.51114E-6
-262.88577E-12	-230.76815E-15	0.0000000E+0	-17.243464E-9	-3.5795171E+0	42.192208E-12	-13.244460E+0	257.92953E-6	-235.46264E-15	0.0000000E+0	-17.243464E-9	3.8676600E+0	46.432830E-12	-13.764888E+0	241.33416E-6
-265.13020E-12	-259.44064E-15	0.0000000E+0	-17.245709E-9	-1.7462103E+0	45.876837E-12	-13.165766E+0	243.12570E-6	-231.85842E-15	0.0000000E+0	-17.245709E-9	6.0464344E+0	55.123434E-12	-13.752663E+0	151.06329E-6
-267.37473E-12	-225.55498E-15	0.0000000E+0	-17.247954E-9	-2.0747213E+0	49.849572E-12	-13.313369E+0	208.12373E-6	-247.35918E-15	0.0000000E+0	-17.247954E-9	7.3509989E+0	56.731658E-12	-13.814085E+0	149.28183E-6
-269.61916E-12	-243.08989E-15	0.0000000E+0	-17.250198E-9	-1.2348658E+0	47.750321E-12	-13.220332E+0	231.93379E-6	-238.83247E-15	0.0000000E+0	-17.250198E-9	3.4364340E+0	51.896650E-12	-14.315658E+0	228.69103E-6
-271.86370E-12	-236.22123E-15	0.0000000E+0	-17.252443E-9	-9.7766638E+0	51.093699E-12	-14.136923E+0	203.42092E-6	-233.67427E-15	0.0000000E+0	-17.252443E-9	5.1991348E+0	38.931320E-12	-14.251779E+0	349.70808E-6
-274.10813E-12	-231.93543E-15	0.0000000E+0	-17.254687E-9	-1.5298359E+0	53.488068E-12	-13.601832E+0	161.59682E-6	-236.20176E-15	0.0000000E+0	-17.254687E-9	3.7806590E+0	42.427305E-12	-14.521437E+0	274.04263E-6
-276.35266E-12	-240.56877E-15	0.0000000E+0	-17.256932E-9	-6.6343846E+0	53.368622E-12	-14.140154E+0	152.08233E-6	-233.89090E-15	0.0000000E+0	-17.256932E-9	4.9430175E+0	48.300867E-12	-14.563926E+0	192.87321E-6
-278.59720E-12	-249.13063E-15	0.0000000E+0	-17.259175E-9	-6.1546292E+0	50.567706E-12	-14.298110E+0	180.31790E-6	-232.93094E-15	0.0000000E+0	-17.259175E-9	8.1944008E+0	54.806555E-12	-14.526846E+0	130.33328E-6
-280.84163E-12	-237.52896E-15	0.0000000E+0	-17.261421E-9	503.38876E-3	57.038929E-12	-13.790818E+0	91.447262E-6	-223.75901E-15	0.0000000E+0	-17.261421E-9	6.9792910E+0	49.667777E-12	-14.805765E+0	191.62091E-6
-283.08617E-12	-242.42864E-15	0.0000000E+0	-17.263664E-9	-6.3984165E+0	48.658418E-12	-14.478127E+0	168.37960E-6	-219.54345E-15	0.0000000E+0	-17.263664E-9	8.0639801E+0	50.792634E-12	-14.931707E+0	177.58543E-6
-285.33059E-12	-234.56993E-15	0.0000000E+0	-17.265910E-9	-13.741128E+0	44.665570E-12	-15.367443E+0	233.11109E-6	-236.14127E-15	0.0000000E+0	-17.265910E-9	684.96692E-3	48.299916E-12	-15.743930E+0	206.78047E-6
-287.57513E-12	-238.54985E-15	0.0000000E+0	-17.268153E-9	-8.6210051E+0	49.904268E-12	-15.319979E+0	180.31446E-6	-221.27977E-15	0.0000000E+0	-17.268153E-9	6.9358864E+0	45.615820E-12	-15.279533E+0	219.31613E-6
-289.81956E-12	-240.16474E-15	0.0000000E+0	-17.270398E-9	-7.6970634E+0	56.000923E-12	-15.436992E+0	104.93151E-6	-223.42436E-15	0.0000000E+0	-17.270398E-9	9.7700024E+0	50.504781E-12	-15.268262E+0	160.46349E-6
-292.06410E-12	-219.75415E-15	0.0000000E+0	-17.272642E-9	-5.2098284E+0	58.043251E-12	-15.442123E+0	55.531986E-6	-233.14965E-15	0.0000000E+0	-17.272642E-9	6.2526007E+0	46.901285E-12	-15.826643E+0	197.11853E-6
-294.30852E-12	-248.61913E-15	0.0000000E+0	-17.274887E-9	-4.3549533E+0	55.979017E-12	-15.494540E+0	54.275162E-6	-229.74727E-15	0.0000000E+0	-17.274887E-9	6.0395150E+0	51.800186E-12	-15.959835E+0	137.50997E-6
-296.55306E-12	-222.94120E-15	0.0000000E+0	-17.277133E-9	-10.054072E+0	48.004635E-12	-16.200497E+0	125.67600E-6	-233.53720E-15	0.0000000E+0	-17.277133E-9	7.5955882E+0	50.129838E-12	-16.053616E+0	162.13355E-6
-298.79760E-12	-229.58607E-15	0.0000000E+0	-17.279376E-9	-2.4520605E+0	50.559969E-12	-15.750125E+0	106.03119E-6	-243.70040E-15	0.0000000E+0	-17.279376E-9	4.5527382E+0	54.105633E-12	-16.488430E+0	123.30494E-6
-301.04202E-12	-241.61294E-15	0.0000000E+0	-17.281621E-9	-2.6359305E+0	54.869807E-12	-15.830156E+0	47.500605E-6	-228.68534E-15	0.0000000E+0	-17.281621E-9	9.0045137E+0	48.438125E-12	-16.231148E+0	187.17225E-6
-303.28656E-12	-252.71790E-15	0.0000000E+0	-17.283865E-9	-911.43167E-3	49.634994E-12	-15.706532E+0	98.010118E-6	-242.11853E-15	0.0000000E+0	-17.283865E-9	7.8599734E+0	57.462979E-12	-16.638367E+0	103.55809E-6
-305.53099E-12	-236.48352E-15	0.0000000E+0	-17.286110E-9	-11.111235E+0	47.072245E-12	-16.774033E+0	133.77458E-6	-227.05183E-15	0.0000000E+0	-17.286110E-9	5.0762777E+0	55.157476E-12	-17.076092E+0	154.49211E-6
-307.77553E-12	-225.30621E-15	0.0000000E+0	-17.288354E-9	-5.3772764E+0	47.612123E-12	-16.546844E+0	136.48093E-6	-227.74949E-15	0.0000000E+0	-17.288354E-9	7.9404263E+0	44.896181E-12	-16.970739E+0	266.45727E-6
-310.01995E-12	-224.50278E-15	0.0000000E+0	-17.290599E-9	-7.7188954E+0	47.463419E-12	-16.893267E+0	141.25423E-6	-248.96394E-15	0.0000000E+0	-17.290599E-9	5.0965605E+0	49.163028E-12	-17.416235E+0	201.56102E-6
-312.26449E-12	-221.61950E-15	0.0000000E+0	-17.292843E-9	-8.8061028E+0	41.276722E-12	-17.234802E+0	231.41243E-6	-232.71348E-15	0.0000000E+0	-17.292843E-9	4.9006844E+0	41.935400E-12	-17.549564E+0	266.34426E-6
-314.50892E-12	-233.74239E-15	0.0000000E+0	-17.295088E-9	-8.9919262E+0	42.322625E-12	-17.561291E+0	249.70854E-6	-214.30870E-15	0.0000000E+0	-17.295088E-9	7.6173038E+0	44.909153E-12	-17.494394E+0	209.14612E-6
-316.75346E-12	-224.10296E-15	0.0000000E+0	-17.297332E-9	-6.7207456E+0	47.421820E-12	-17.590084E+0	215.40647E-6	-250.16464E-15	0.0000000E+0	-17.297332E-9	8.1975803E+0	49.381162E-12	-17.742048E+0	154.43377E-6
-318.99799E-12	-206.06838E-15	0.0000000E+0	-17.299577E-9	-8.3579311E+0	49.518376E-12	-17.929344E+0	200.15633E-6	-231.89100E-15	0.0000000E+0	-17.299577E-9	4.3203053E+0	47.878295E-12	-18.250757E+0	157.14996E-6
-321.24242E-12	-231.32578E-15	0.0000000E+0	-17.301820E-9	-2.6270168E+0	49.538085E-12	-17.611374E+0	200.34678E-6	-221.63261E-15	0.0000000E+0	-17.301820E-9	6.7771788E+0	50.307838E-12	-18.173441E+0	132.84404E-6
-323.48696E-12	-238.17669E-15	0.0000000E+0	-17.304066E-9	-5.0012283E+0	49.983382E-12	-17.914993E+0	198.54825E-6	-227.63315E-15	0.0000000E+0	-17.304066E-9	10.865863E+0	58.522458E-12	-18.069918E+0	57.705882E-6
-325.73139E-12	-231.98026E-15	0.0000000E+0	-17.306309E-9	-6.0758085E+0	54.668516E-12	-18.151039E+0	138.66078E-6	-218.09525E-15	0.0000000E+0	-17.306309E-9	10.124967E+0	60.089073E-12	-18.478489E+0	75.288553E-6
-327.97592E-12	-230.89001E-15	0.0000000E+0	-17.308555E-9	-10.175071E+0	52.045836E-12	-18.713211E+0	154.63795E-6	-227.80153E-15	0.0000000E+0	-17.308555E-9	9.8223324E+0	55.269161E-12	-18.762762E+0	160.45371E-6
-330.22035E-12	-242.55429E-15	0.0000000E+0	-17.310800E-9	-10.498418E+0	52.668207E-12	-19.085394E+0	139.35953E-6	-236.98190E-15	0.0000000E+0	-17.310800E-9	7.9329896E+0	48.678981E-12	-19.176023E+0	236.10883E-6
-332.46489E-12	-239.53731E-15	0.0000000E+0	-17.313043E-9	-7.5825834E+0	49.611995E-12	-19.065332E+0	166.12343E-6	-221.04791E-15	0.0000000E+0	-17.313043E-9	3.9785466E+0	45.365111E-12	-19.712017E+0	263.45975E-6
-334.70943E-12	-243.82224E-15	0.0000000E+0	-17.315289E-9	-12.205682E+0	51.310744E-12	-19.759560E+0	152.30224E-6	-242.85890E-15	0.0000000E+0	-17.315289E-9	8.7287016E+0	43.410713E-12	-19.492661E+0	263.97608E-6
-336.95385E-12	-236.86261E-15	0.0000000E+0	-17.317532E-9	-5.4937110E+0	44.606801E-12	-19.451809E+0	225.90396E-6	-228.82114E-15	0.0000000E+0	-17.317532E-9	11.752366E+0	48.302744E-12	-19.538002E+0	198.47682E-6
-339.19839E-12	-229.17527E-15	0.0000000E+0	-17.319778E-9	-8.8806438E+0	44.232944E-12	-19.983784E+0	253.27352E-6	-222.86082E-15	0.0000000E+0	-17.319778E-9	5.0167842E+0	49.392671E-12	-20.306631E+0	180.06253E-6
-341.44282E-12	-246.28541E-15	0.0000000E+0	-17.322021E-9	-3.6069524E+0	45.841345E-12	-19.716091E+0	250.37816E-6	-220.45899E-15	0.0000000E+0	-17.322021E-9	5.5982914E+0	48.791440E-12	-20.442818E+0	181.94561E-6
-343.68736E-12	-242.47770E-15	0.0000000E+0	-17.324266E-9	-5.4787951E+0	47.056688E-12	-19.973572E+0	253.36083E-6	-240.23497E-15	0.0000000E+0	-17.324266E-9	6.1428537E+0	50.895128E-12	-20.586119E+0	155.41427E-6
-345.93178E-12	-234.86863E-15	0.0000000E+0	-17.326510E-9	-10.755013E+0	55.854633E-12	-20.681192E+0	156.25329E-6	-227.04886E-15	0.0000000E+0	-17.326510E-9	9.3420744E+0	55.612771E-12	-20.517591E+0	121.22618E-6
-348.17632E-12	-243.11317E-15	0.0000000E+0	-17.328755E-9	-9.2824707E+0	55.469827E-12	-20.863947E+0	136.19012E-6	-254.79480E-15	0.0000000E+0	-17.328755E-9	11.170245E+0	58.568358E-12	-20.643379E+0	116.15433E-6
-350.42075E-12	-244.31344E-15	0.0000000E+0	-17.330999E-9	-9.9167461E+0	53.769586E-12	-21.209066E+0	139.32446E-6	-240.67879E-15	0.0000000E+0	-17.330999E-9	9.0816298E+0	55.905443E-12	-21.119833E+0	174.62877E-6
-352.66529E-12	-218.52003E-15	0.0000000E+0	-17.333244E-9	-5.9092131E+0	47.354873E-12	-21.109591E+0	206.92559E-6	-241.63790E-15	0.0000000E+0	-17.333244E-9	4.8141742E+0	50.142997E-12	-21.693855E+0	249.11182E-6
-354.90982E-12	-227.22910E-15	0.0000000E+0	-17.335488E-9	-2.6597536E+0	52.961645E-12	-20.922903E+0	145.18823E-6	-235.08355E-15	0.0000000E+0	-17.335488E-9	7.6796846E+0	52.686102E-12	-21.630344E+0	225.31683E-6
-357.15425E-12	-252.37649E-15	0.0000000E+0	-17.337733E-9	-6.3098993E+0	55.198315E-12	-21.353868E+0	106.66998E-6	-235.01670E-15	0.0000000E+0	-17.337733E-9	10.038962E+0	54.365901E-12	-21.644768E+0	219.01669E-6
-359.39879E-12	-253.46844E-15	0.0000000E+0	-17.339977E-9	-3.4540794E+0	52.621105E-12	-21.297571E+0	119.15627E-6	-225.86467E-15	0.0000000E+0	-17.339977E-9	4.4155889E+0	52.348733E-12	-22.374805E+0	255.55104E-6
-361.64322E-12	-232.87042E-15	0.0000000E+0	-17.342222E-9	-8.2677526E+0	49.437676E-12	-21.894381E+0	148.60574E-6	-247.67693E-15	0.0000000E+0	-17.342222E-9	4.0497999E+0	46.886783E-12	-22.504801E+0	307.35746E-6
-363.88775E-12	-230.36751E-15	0.0000000E+0	-17.344467E-9	-8.8520422E+0	51.815444E-12	-22.171268E+0	121.61257E-6	-227.00740E-15	0.0000000E+0	-17.344467E-9	7.0395527E+0	50.040892E-12	-22.403824E+0	260.08615E-6
-366.13218E-12	-217.50252E-15	0.0000000E+0	-17.346711E-9	-7.5498133E+0	45.224002E-12	-22.342424E+0	199.46345E-6	-235.07720E-15	0.0000000E+0	-17.346711E-9	9.0031509E+0	50.452836E-12	-22.495981E+0	263.90282E-6
-368.37672E-12	-232.44102E-15	0.0000000E+0	-17.348956E-9	-7.2284222E+0	44.719974E-12	-22.487873E+0	224.33735E-6	-242.45360E-15	0.0000000E+0	-17.348956E-9	7.9510665E+0	57.045726E-12	-22.837667E+0	202.53386E-6
-370.62114E-12	-246.23719E-15	0.0000000E+0	-17.351200E-9	-4.2852244E+0	41.574917E-12	-22.389366E+0	284.75054E-6	-234.41256E-15	0.0000000E+0	-17.351200E-9	7.3476281E+0	56.747714E-12	-23.095633E+0	231.43907E-6
-372.86568E-12	-236.29314E-15	0.0000000E+0	-17.353445E-9	-5.9118905E+0	47.759928E-12	-22.736980E+0	236.57552E-6	-240.26755E-15	0.0000000E+0	-17.353445E-9	11.154890E+0	57.268808E-12	-23.065130E+0	254.15260E-6
-375.11022E-12	-239.63419E-15	0.0000000E+0	-17.355688E-9	-7.1325808E+0	49.761469E-12	-23.048666E+0	220.59098E-6	-225.57191E-15	0.0000000E+0	-17.355688E-9	9.4563599E+0	54.522529E-12	-23.522543E+0	306.75565E-6
-377.35465E-12	-239.48061E-15	0.0000000E+0	-17.357934E-9	-8.1827078E+0	51.774352E-12	-23.353920E+0	194.85566E-6	-230.59427E-15	0.0000000E+0	-17.357934E-9	9.7227564E+0	46.888993E-12	-23.726681E+0	395.98419E-6
-379.59919E-12	-247.20097E-15	0.0000000E+0	-17.360177E-9	-7.2695260E+0	46.025135E-12	-23.527514E+0	261.33389E-6	-236.39933E-15	0.0000000E+0	-17.360177E-9	6.1883879E+0	51.545452E-12	-24.310610E+0	332.44776E-6
-381.84361E-12	-229.13423E-15	0.0000000E+0	-17.362423E-9	-6.5137658E+0	48.310082E-12	-23.665571E+0	248.76033E-6	-213.74727E-15	0.0000000E+0	-17.362423E-9	10.869115E+0	55.052404E-12	-24.142694E+0	310.39893E-6
-384.08815E-12	-236.05494E-15	0.0000000E+0	-17.364666E-9	-7.3884645E+0	46.376576E-12	-23.923531E+0	278.22400E-6	-243.23629E-15	0.0000000E+0	-17.364666E-9	4.5655556E+0	50.517764E-12	-24.956100E+0	377.37063E-6
-386.33258E-12	-216.64578E-15	0.0000000E+0	-17.366911E-9	-11.714312E+0	46.927705E-12	-24.576962E+0	281.45203E-6	-235.74822E-15	0.0000000E+0	-17.366911E-9	2.9459198E+0	42.278143E-12	-25.174175E+0	449.00351E-6
-388.57711E-12	-222.80497E-15	0.0000000E+0	-17.369155E-9	-11.173894E+0	51.334600E-12	-24.859747E+0	232.12841E-6	-229.41471E-15	0.0000000E+0	-17.369155E-9	8.4011927E+0	43.681687E-12	-24.832787E+0	410.39361E-6
-390.82154E-12	-243.67165E-15	0.0000000E+0	-17.371400E-9	-7.9283953E+0	49.171275E-12	-24.862804E+0	261.53962E-6	-240.66735E-15	0.0000000E+0	-17.371400E-9	8.4502258E+0	47.352837E-12	-25.093094E+0	352.90568E-6
-393.06608E-12	-248.31577E-15	0.0000000E+0	-17.373646E-9	-2.6523247E+0	46.181128E-12	-24.512981E+0	304.65645E-6	-227.27352E-15	0.0000000E+0	-17.373646E-9	6.1945338E+0	53.779585E-12	-25.477776E+0	289.10986E-6
-395.31062E-12	-246.54646E-15	0.0000000E+0	-17.375889E-9	-9.8645525E+0	50.218944E-12	-25.372957E+0	272.01240E-6	-243.13602E-15	0.0000000E+0	-17.375889E-9	943.15755E-3	48.822224E-12	-26.107250E+0	347.06591E-6
-397.55504E-12	-238.00661E-15	0.0000000E+0	-17.378134E-9	-5.6507092E+0	54.915242E-12	-25.229757E+0	203.99454E-6	-232.66312E-15	0.0000000E+0	-17.378134E-9	-3.5447390E+0	47.909433E-12	-26.437922E+0	347.30218E-6
-399.79958E-12	-221.12153E-15	0.0000000E+0	-17.380378E-9	-6.4264588E+0	51.278988E-12	-25.473783E+0	230.97814E-6	-224.18463E-15	0.0000000E+0	-17.380378E-9	5.2776408E+0	51.078995E-12	-25.684242E+0	310.00661E-6
-402.04401E-12	-221.87039E-15	0.0000000E+0	-17.382623E-9	-6.3236628E+0	45.435301E-12	-25.624866E+0	300.04131E-6	-242.71378E-15	0.0000000E+0	-17.382623E-9	3.3166952E+0	55.695001E-12	-25.976557E+0	267.48425E-6
-404.28855E-12	-237.45323E-15	0.0000000E+0	-17.384867E-9	-7.7153244E+0	39.440153E-12	-25.964939E+0	396.85084E-6	-236.36719E-15	0.0000000E+0	-17.384867E-9	1.4790633E+0	56.592810E-12	-26.225866E+0	283.83860E-6
-406.53297E-12	-230.10562E-15	0.0000000E+0	-17.387112E-9	-7.5352468E+0	45.455500E-12	-26.172924E+0	362.27002E-6	-237.08260E-15	0.0000000E+0	-17.387112E-9	-266.89738E-3	49.106202E-12	-26.408092E+0	373.04292E-6
-408.77751E-12	-223.61136E-15	0.0000000E+0	-17.389356E-9	-5.6621633E+0	48.644019E-12	-26.194157E+0	331.29458E-6	-231.54409E-15	0.0000000E+0	-17.389356E-9	1.6131802E+0	49.431920E-12	-26.257217E+0	364.12990E-6
-411.02205E-12	-231.83178E-15	0.0000000E+0	-17.391601E-9	-2.9158320E+0	50.284631E-12	-26.078230E+0	320.77412E-6	-245.51119E-15	0.0000000E+0	-17.391601E-9	4.0424976E+0	53.856537E-12	-26.117212E+0	323.37138E-6
-413.26648E-12	-235.21641E-15	0.0000000E+0	-17.393845E-9	-2.6656694E+0	54.283706E-12	-26.141182E+0	263.34904E-6	-238.92130E-15	0.0000000E+0	-17.393845E-9	-1.0019194E+0	52.498072E-12	-26.657293E+0	349.96634E-6
-415.51101E-12	-257.58161E-15	0.0000000E+0	-17.396090E-9	-7.5320630E+0	44.206510E-12	-26.735920E+0	381.08692E-6	-216.01328E-15	0.0000000E+0	-17.396090E-9	258.26001E-3	43.039662E-12	-26.500040E+0	449.81122E-6
-417.75544E-12	-245.52219E-15	0.0000000E+0	-17.398333E-9	-8.6620779E+0	42.329324E-12	-27.008984E+0	428.23362E-6	-218.16422E-15	0.0000000E+0	-17.398333E-9	-443.77992E-3	49.690231E-12	-26.560642E+0	356.79308E-6
-419.99998E-12	-231.27287E-15	0.0000000E+0	-17.400579E-9	-4.3347712E+0	50.154093E-12	-26.847837E+0	353.78308E-6	-229.39617E-15	0.0000000E+0	-17.400579E-9	1.0830306E+0	48.891339E-12	-26.419086E+0	371.01508E-6
