Experiment	Z spectroscopy	
Saved Date	16.02.2019 17:35:14	
User		
X (m)	75.6695E-9	
Y (m)	15.3828E-9	
Z (m)	-16.9806E-9	
Z offset (m)	700E-12	
Z sweep distance (m)	1.12E-9	
Settling time (s)	10E-3	
Integration time (s)	60E-3	
Final Z (m)	N/A	
Start time	16.02.2019 17:33:53	
Filter type	None	
Order		
Cutoff frq		

[DATA]
Z rel (m)	Current (A)	Bias (V)	Z (m)	OC D1 Phase (deg)	OC D1 Amplitude (m)	OC M1 Freq. Shift (Hz)	OC M1 Excitation (V)	Current [bwd] (A)	Bias [bwd] (V)	Z [bwd] (m)	OC D1 Phase [bwd] (deg)	OC D1 Amplitude [bwd] (m)	OC M1 Freq. Shift [bwd] (Hz)	OC M1 Excitation [bwd] (V)
700.00000E-12	-228.21784E-15	0.0000000E+0	-16.280579E-9	-2.1226957E+0	49.684146E-12	-394.86057E-3	224.61578E-6	-222.70681E-15	0.0000000E+0	-16.280579E-9	-2.0370893E+0	43.200450E-12	-157.60767E-3	233.71358E-6
697.75552E-12	-243.35305E-15	0.0000000E+0	-16.282824E-9	2.6570466E+0	53.373785E-12	16.823379E-3	177.71515E-6	-231.92909E-15	0.0000000E+0	-16.282824E-9	-3.1822600E+0	45.743839E-12	-114.89216E-3	182.67894E-6
695.51104E-12	-255.79707E-15	0.0000000E+0	-16.285068E-9	4.1229420E+0	49.657906E-12	224.34443E-3	208.37606E-6	-243.32259E-15	0.0000000E+0	-16.285068E-9	2.5137734E+0	48.614536E-12	335.86660E-3	137.11343E-6
693.26656E-12	-233.01004E-15	0.0000000E+0	-16.287313E-9	5.8828125E+0	48.868357E-12	510.62775E-3	227.17413E-6	-236.40101E-15	0.0000000E+0	-16.287313E-9	-574.27317E-3	55.194245E-12	12.973130E-3	76.028162E-6
691.02207E-12	-240.75788E-15	0.0000000E+0	-16.289556E-9	1.0852274E+0	52.205781E-12	180.34895E-3	188.26121E-6	-241.62985E-15	0.0000000E+0	-16.289556E-9	-2.5915165E+0	54.371729E-12	-122.95223E-3	104.39267E-6
688.77754E-12	-252.31428E-15	0.0000000E+0	-16.291802E-9	-154.04764E-3	55.260810E-12	48.415165E-3	136.55743E-6	-238.98391E-15	0.0000000E+0	-16.291802E-9	-3.4566445E+0	50.591129E-12	-64.257652E-3	158.20752E-6
686.53305E-12	-247.61473E-15	0.0000000E+0	-16.294045E-9	2.7603805E+0	45.877854E-12	391.89479E-3	242.34717E-6	-224.31492E-15	0.0000000E+0	-16.294045E-9	3.1033256E+0	42.595628E-12	530.00784E-3	225.68823E-6
684.28857E-12	-228.12646E-15	0.0000000E+0	-16.296291E-9	4.2535586E+0	47.311859E-12	622.86276E-3	235.15224E-6	-243.50156E-15	0.0000000E+0	-16.296291E-9	73.889337E-3	51.166134E-12	205.03443E-3	123.81152E-6
682.04409E-12	-243.41526E-15	0.0000000E+0	-16.298534E-9	-1.2376765E+0	44.746980E-12	189.01347E-3	277.26521E-6	-244.66079E-15	0.0000000E+0	-16.298534E-9	1.6867000E+0	51.733510E-12	340.00582E-3	124.38923E-6
679.79961E-12	-242.62282E-15	0.0000000E+0	-16.300779E-9	-3.5730956E+0	50.302016E-12	-69.871008E-3	227.80419E-6	-239.97053E-15	0.0000000E+0	-16.300779E-9	-246.64091E-3	49.813376E-12	115.14882E-3	147.10362E-6
677.55512E-12	-266.38167E-15	0.0000000E+0	-16.303023E-9	-2.0451224E+0	56.732050E-12	-69.758281E-3	145.81556E-6	-232.05938E-15	0.0000000E+0	-16.303023E-9	-1.5637398E+0	48.564094E-12	6.5168473E-3	156.41002E-6
675.31064E-12	-246.40091E-15	0.0000000E+0	-16.305268E-9	480.78138E-3	54.269509E-12	149.03128E-3	151.68036E-6	-243.04590E-15	0.0000000E+0	-16.305268E-9	-1.5236850E+0	46.416815E-12	27.766671E-3	169.48099E-6
673.06616E-12	-220.23011E-15	0.0000000E+0	-16.307512E-9	-4.9460831E+0	55.939642E-12	-411.18827E-3	117.62683E-6	-242.62916E-15	0.0000000E+0	-16.307512E-9	3.7637401E+0	55.457052E-12	460.89518E-3	75.771342E-6
670.82162E-12	-226.44683E-15	0.0000000E+0	-16.309757E-9	-69.371387E-3	55.793113E-12	-45.431506E-3	94.673298E-6	-227.91914E-15	0.0000000E+0	-16.309757E-9	787.46927E-3	54.406875E-12	115.10581E-3	111.38595E-6
668.57714E-12	-236.15563E-15	0.0000000E+0	-16.312001E-9	1.5894700E+0	47.811425E-12	96.006498E-3	177.79134E-6	-234.15490E-15	0.0000000E+0	-16.312001E-9	-2.5761287E+0	45.276411E-12	-103.74298E-3	205.27403E-6
666.33266E-12	-217.93828E-15	0.0000000E+0	-16.314246E-9	3.1442897E+0	51.257911E-12	309.83961E-3	138.94493E-6	-238.67041E-15	0.0000000E+0	-16.314246E-9	2.7996762E+0	48.130982E-12	319.62854E-3	162.78829E-6
664.08817E-12	-251.88909E-15	0.0000000E+0	-16.316491E-9	-3.7768424E+0	45.927220E-12	-316.87415E-3	207.62419E-6	-248.11270E-15	0.0000000E+0	-16.316491E-9	-5.6101432E+0	46.412506E-12	-380.29030E-3	174.05895E-6
661.84369E-12	-243.35601E-15	0.0000000E+0	-16.318735E-9	1.5982772E+0	52.062857E-12	154.35906E-3	143.94462E-6	-247.76914E-15	0.0000000E+0	-16.318735E-9	-1.4130383E+0	44.410864E-12	50.701007E-3	178.67253E-6
659.59921E-12	-232.36824E-15	0.0000000E+0	-16.320980E-9	103.16482E-3	54.463531E-12	14.829069E-3	100.59083E-6	-229.52514E-15	0.0000000E+0	-16.320980E-9	1.0875903E+0	46.535779E-12	297.03167E-3	139.32287E-6
657.35473E-12	-263.56437E-15	0.0000000E+0	-16.323224E-9	5.0260572E+0	51.700928E-12	544.72148E-3	120.27747E-6	-239.79370E-15	0.0000000E+0	-16.323224E-9	-1.6785542E+0	56.930821E-12	43.520276E-3	28.810759E-6
655.11024E-12	-247.19842E-15	0.0000000E+0	-16.325469E-9	355.24148E-3	51.979417E-12	217.09836E-3	111.45381E-6	-241.44708E-15	0.0000000E+0	-16.325469E-9	1.3961710E+0	53.194438E-12	328.85960E-3	96.621072E-6
652.86576E-12	-222.98562E-15	0.0000000E+0	-16.327713E-9	-3.5724330E+0	50.135434E-12	-187.71330E-3	123.40177E-6	-234.57671E-15	0.0000000E+0	-16.327713E-9	-218.67602E-3	49.932065E-12	147.68156E-3	124.68493E-6
650.62122E-12	-250.70278E-15	0.0000000E+0	-16.329958E-9	-308.51704E-3	40.624917E-12	49.612604E-3	244.10230E-6	-229.52725E-15	0.0000000E+0	-16.329958E-9	805.60631E-3	52.247758E-12	227.03056E-3	104.80864E-6
648.37674E-12	-243.24263E-15	0.0000000E+0	-16.332201E-9	-3.6539178E+0	45.138417E-12	-306.17511E-3	230.29344E-6	-231.97858E-15	0.0000000E+0	-16.332201E-9	1.1832230E+0	51.830110E-12	221.55401E-3	120.51831E-6
646.13226E-12	-246.90184E-15	0.0000000E+0	-16.334447E-9	240.29563E-3	48.278107E-12	454.21437E-6	201.92096E-6	-239.08799E-15	0.0000000E+0	-16.334447E-9	1.0242039E+0	52.121057E-12	183.51074E-3	129.37355E-6
643.88778E-12	-242.32455E-15	0.0000000E+0	-16.336690E-9	-864.67278E-3	55.785307E-12	-88.236950E-3	119.62141E-6	-230.48130E-15	0.0000000E+0	-16.336690E-9	473.51933E-3	56.638520E-12	136.69358E-3	93.592258E-6
641.64329E-12	-242.77428E-15	0.0000000E+0	-16.338936E-9	4.7365794E+0	54.137434E-12	451.80723E-3	117.33316E-6	-239.99888E-15	0.0000000E+0	-16.338936E-9	-783.45084E-3	55.826174E-12	51.078901E-3	127.60991E-6
639.39881E-12	-242.08847E-15	0.0000000E+0	-16.341179E-9	1.8436216E+0	52.173325E-12	327.29670E-3	124.41262E-6	-224.68555E-15	0.0000000E+0	-16.341179E-9	1.2611158E+0	46.218283E-12	196.62960E-3	233.25380E-6
637.15433E-12	-234.40662E-15	0.0000000E+0	-16.343424E-9	-2.3647888E+0	54.706469E-12	-98.828658E-3	84.209183E-6	-228.00249E-15	0.0000000E+0	-16.343424E-9	5.5444016E+0	49.258035E-12	500.92101E-3	190.54062E-6
634.90985E-12	-226.79586E-15	0.0000000E+0	-16.345670E-9	-2.2911482E+0	49.668374E-12	-114.41654E-3	130.41930E-6	-224.45709E-15	0.0000000E+0	-16.345670E-9	3.6556327E+0	44.491834E-12	191.37558E-3	230.03560E-6
632.66536E-12	-243.77825E-15	0.0000000E+0	-16.347913E-9	-3.4000454E+0	45.192863E-12	-325.63657E-3	190.81210E-6	-230.65856E-15	0.0000000E+0	-16.347913E-9	-482.69638E-3	54.458365E-12	-210.58278E-3	117.16582E-6
630.42083E-12	-239.55084E-15	0.0000000E+0	-16.350159E-9	2.2593901E+0	44.771457E-12	180.17940E-3	213.17726E-6	-249.65482E-15	0.0000000E+0	-16.350159E-9	-4.5998707E+0	48.048784E-12	-504.50182E-3	202.95368E-6
628.17634E-12	-247.75223E-15	0.0000000E+0	-16.352402E-9	3.0372126E+0	49.919447E-12	360.11523E-3	167.72980E-6	-252.38327E-15	0.0000000E+0	-16.352402E-9	616.13947E-3	47.216817E-12	2.5654591E-3	196.36338E-6
625.93186E-12	-230.20843E-15	0.0000000E+0	-16.354647E-9	-4.5639353E+0	48.929496E-12	-341.21966E-3	180.58468E-6	-244.60664E-15	0.0000000E+0	-16.354647E-9	703.16887E-3	57.066601E-12	-8.6420076E-3	96.695629E-6
623.68738E-12	-236.34306E-15	0.0000000E+0	-16.356891E-9	-955.01626E-3	48.673322E-12	-104.46589E-3	192.22821E-6	-233.22414E-15	0.0000000E+0	-16.356891E-9	674.77882E-3	52.324905E-12	-37.473448E-3	169.65471E-6
621.44290E-12	-240.67665E-15	0.0000000E+0	-16.359136E-9	-3.3425670E+0	47.319652E-12	-381.22731E-3	212.84967E-6	-234.66260E-15	0.0000000E+0	-16.359136E-9	2.6702557E+0	50.696992E-12	35.652258E-3	189.53349E-6
619.19841E-12	-246.66957E-15	0.0000000E+0	-16.361380E-9	5.6157398E+0	49.202226E-12	412.85986E-3	198.74315E-6	-270.14453E-15	0.0000000E+0	-16.361380E-9	-2.0177524E+0	50.623599E-12	-329.98934E-3	190.69861E-6
616.95393E-12	-254.82188E-15	0.0000000E+0	-16.363625E-9	-2.0865946E+0	55.199189E-12	-205.53429E-3	121.34637E-6	-232.16685E-15	0.0000000E+0	-16.363625E-9	-1.3110936E+0	55.438584E-12	-248.69654E-3	147.00110E-6
614.70939E-12	-259.59589E-15	0.0000000E+0	-16.365869E-9	-2.5773525E+0	53.078323E-12	-281.77854E-3	128.41681E-6	-220.68449E-15	0.0000000E+0	-16.365869E-9	2.0757155E+0	50.829028E-12	23.608139E-3	214.82389E-6
612.46491E-12	-231.29911E-15	0.0000000E+0	-16.368114E-9	-3.5571346E+0	44.871520E-12	-487.02148E-3	224.47151E-6	-232.22057E-15	0.0000000E+0	-16.368114E-9	532.89568E-3	46.350836E-12	-132.41319E-3	253.12573E-6
610.22043E-12	-233.65356E-15	0.0000000E+0	-16.370358E-9	-3.5927508E+0	42.040656E-12	-579.05704E-3	279.92023E-6	-232.08350E-15	0.0000000E+0	-16.370358E-9	1.6802766E+0	49.959554E-12	-42.239781E-3	203.89231E-6
607.97595E-12	-231.50939E-15	0.0000000E+0	-16.372603E-9	-658.22750E-3	47.978899E-12	-355.01149E-3	233.26302E-6	-236.80973E-15	0.0000000E+0	-16.372603E-9	-4.1668577E+0	49.814115E-12	-493.68170E-3	203.42119E-6
605.73146E-12	-255.54789E-15	0.0000000E+0	-16.374846E-9	4.1681032E+0	50.136787E-12	131.06465E-3	212.44325E-6	-228.30373E-15	0.0000000E+0	-16.374846E-9	1.0762317E+0	55.979950E-12	-22.877181E-3	150.63246E-6
603.48698E-12	-232.27050E-15	0.0000000E+0	-16.377092E-9	2.3825316E+0	57.962610E-12	54.648768E-3	115.80678E-6	-234.64526E-15	0.0000000E+0	-16.377092E-9	-2.1674502E+0	45.257832E-12	-303.84666E-3	267.42643E-6
601.24250E-12	-244.54063E-15	0.0000000E+0	-16.379337E-9	-1.1318839E+0	62.519115E-12	-249.18959E-3	25.341580E-6	-224.92502E-15	0.0000000E+0	-16.379337E-9	1.0209360E+0	43.100287E-12	3.7858642E-3	269.55333E-6
598.99802E-12	-236.99207E-15	0.0000000E+0	-16.381581E-9	-1.4001422E+0	53.448267E-12	-310.39038E-3	92.393093E-6	-226.62326E-15	0.0000000E+0	-16.381581E-9	1.4352658E+0	54.687053E-12	-48.167050E-3	139.53594E-6
596.75354E-12	-220.40991E-15	0.0000000E+0	-16.383826E-9	7.8432922E+0	51.751162E-12	611.15229E-3	102.26676E-6	-231.61009E-15	0.0000000E+0	-16.383826E-9	-479.90561E-3	53.141894E-12	-211.60606E-3	172.86396E-6
594.50900E-12	-262.28921E-15	0.0000000E+0	-16.386069E-9	1.3988837E+0	52.901416E-12	187.02599E-3	83.735635E-6	-248.44184E-15	0.0000000E+0	-16.386069E-9	2.4424148E+0	47.039300E-12	1.9938359E-3	237.04478E-6
592.26452E-12	-241.08959E-15	0.0000000E+0	-16.388315E-9	4.1579113E+0	49.906725E-12	517.36528E-3	104.70263E-6	-241.27743E-15	0.0000000E+0	-16.388315E-9	51.519576E-3	49.813449E-12	-189.56985E-3	198.12677E-6
590.02003E-12	-231.03427E-15	0.0000000E+0	-16.390558E-9	-544.16341E-3	49.903102E-12	183.78600E-3	111.42083E-6	-242.90333E-15	0.0000000E+0	-16.390558E-9	3.5811882E+0	48.636775E-12	43.791369E-3	212.69455E-6
587.77555E-12	-235.32852E-15	0.0000000E+0	-16.392804E-9	-1.6100763E+0	45.714724E-12	-6.0462053E-3	165.10453E-6	-232.46512E-15	0.0000000E+0	-16.392804E-9	-2.0710728E+0	50.728484E-12	-494.39585E-3	186.91133E-6
585.53107E-12	-228.92945E-15	0.0000000E+0	-16.395047E-9	-75.685315E-3	47.722427E-12	74.265167E-3	157.14862E-6	-233.01004E-15	0.0000000E+0	-16.395047E-9	-3.6504655E+0	51.722262E-12	-518.79650E-3	180.74366E-6
583.28659E-12	-233.58586E-15	0.0000000E+0	-16.397292E-9	4.2067418E+0	53.595926E-12	554.84080E-3	90.847127E-6	-234.27335E-15	0.0000000E+0	-16.397292E-9	-1.2851481E+0	51.003906E-12	-241.25287E-3	195.39119E-6
581.04210E-12	-234.04193E-15	0.0000000E+0	-16.399536E-9	-737.40643E-3	48.389348E-12	158.39045E-3	140.50034E-6	-216.03951E-15	0.0000000E+0	-16.399536E-9	361.73770E-3	39.973753E-12	-81.564747E-3	297.70570E-6
578.79762E-12	-247.53393E-15	0.0000000E+0	-16.401781E-9	-2.1712523E+0	49.527396E-12	-3.6191996E-3	134.75756E-6	-222.13988E-15	0.0000000E+0	-16.401781E-9	4.1660461E+0	48.450015E-12	217.78174E-3	186.21076E-6
576.55314E-12	-234.81068E-15	0.0000000E+0	-16.404025E-9	-984.91436E-3	50.418260E-12	34.958936E-3	125.44922E-6	-236.53429E-15	0.0000000E+0	-16.404025E-9	2.1500084E+0	52.610347E-12	-67.474477E-3	143.97134E-6
574.30860E-12	-245.63262E-15	0.0000000E+0	-16.406270E-9	319.84425E-3	53.810657E-12	120.18581E-3	85.849737E-6	-223.43112E-15	0.0000000E+0	-16.406270E-9	-1.5516005E+0	46.484358E-12	-391.83563E-3	209.32581E-6
572.06412E-12	-256.58018E-15	0.0000000E+0	-16.408514E-9	-132.79454E-3	49.817019E-12	101.36748E-3	118.14396E-6	-218.81998E-15	0.0000000E+0	-16.408514E-9	-6.3313570E+0	46.315847E-12	-730.30019E-3	191.01995E-6
569.81964E-12	-231.49332E-15	0.0000000E+0	-16.410759E-9	-4.9710917E+0	44.669674E-12	-417.85246E-3	191.09776E-6	-239.65576E-15	0.0000000E+0	-16.410759E-9	-77.800512E-3	47.310548E-12	-97.247303E-3	170.84395E-6
567.57515E-12	-251.47533E-15	0.0000000E+0	-16.413004E-9	-2.4650755E+0	53.967539E-12	-327.00574E-3	92.502414E-6	-239.85927E-15	0.0000000E+0	-16.413004E-9	833.27240E-3	51.859010E-12	-10.988311E-3	121.41421E-6
565.33067E-12	-232.24977E-15	0.0000000E+0	-16.415248E-9	-651.75349E-3	53.220400E-12	-192.77038E-3	84.187210E-6	-238.72205E-15	0.0000000E+0	-16.415248E-9	1.0483369E+0	54.791303E-12	-34.196097E-3	105.21019E-6
563.08619E-12	-214.00747E-15	0.0000000E+0	-16.417493E-9	89.736871E-3	51.240050E-12	-161.37527E-3	98.592369E-6	-249.23767E-15	0.0000000E+0	-16.417493E-9	2.2662916E+0	56.270946E-12	35.640847E-3	105.86261E-6
560.84171E-12	-227.70845E-15	0.0000000E+0	-16.419737E-9	-848.43892E-3	51.102362E-12	-252.13444E-3	93.486058E-6	-236.05705E-15	0.0000000E+0	-16.419737E-9	2.4122880E+0	58.822322E-12	-7.5684995E-3	105.43744E-6
558.59717E-12	-231.25089E-15	0.0000000E+0	-16.421982E-9	-4.4348731E+0	53.543767E-12	-620.79549E-3	56.285382E-6	-241.02443E-15	0.0000000E+0	-16.421982E-9	-2.1522880E+0	51.572871E-12	-423.89849E-3	206.30055E-6
556.35274E-12	-230.54055E-15	0.0000000E+0	-16.424226E-9	2.6473529E+0	53.683540E-12	-34.252308E-3	41.759875E-6	-234.08001E-15	0.0000000E+0	-16.424226E-9	-2.3050952E+0	45.808912E-12	-362.28809E-3	258.60922E-6
554.10820E-12	-231.76028E-15	0.0000000E+0	-16.426471E-9	1.3160501E+0	53.555490E-12	-57.943810E-3	29.611456E-6	-230.62558E-15	0.0000000E+0	-16.426471E-9	1.9902395E+0	45.820701E-12	22.631843E-3	242.74511E-6
551.86372E-12	-227.82988E-15	0.0000000E+0	-16.428714E-9	-2.9521585E+0	52.123240E-12	-481.09671E-3	41.354495E-6	-233.01641E-15	0.0000000E+0	-16.428714E-9	4.2171531E+0	48.533597E-12	77.552795E-3	199.63934E-6
549.61924E-12	-236.56560E-15	0.0000000E+0	-16.430960E-9	1.6849531E+0	51.393469E-12	-50.915942E-3	39.178951E-6	-225.34978E-15	0.0000000E+0	-16.430960E-9	1.4465623E+0	50.141093E-12	-235.35806E-3	179.57536E-6
547.37476E-12	-227.07299E-15	0.0000000E+0	-16.433203E-9	325.71900E-3	50.460292E-12	-149.58154E-3	51.235475E-6	-224.79428E-15	0.0000000E+0	-16.433203E-9	-1.8815320E+0	53.000451E-12	-521.62349E-3	151.85444E-6
545.13027E-12	-243.33104E-15	0.0000000E+0	-16.435449E-9	-107.35939E-3	43.212330E-12	-178.78415E-3	135.33908E-6	-219.67207E-15	0.0000000E+0	-16.435449E-9	2.9661658E+0	47.721754E-12	-73.695429E-3	211.38041E-6
542.88579E-12	-232.06025E-15	0.0000000E+0	-16.437692E-9	2.3765533E+0	43.243693E-12	65.117210E-3	165.35398E-6	-224.82558E-15	0.0000000E+0	-16.437692E-9	228.28400E-3	53.349814E-12	-388.53252E-3	148.45651E-6
540.64131E-12	-223.87367E-15	0.0000000E+0	-16.439937E-9	-24.722449E-3	47.849658E-12	-142.99543E-3	131.42405E-6	-227.32895E-15	0.0000000E+0	-16.439937E-9	1.1664189E+0	51.707937E-12	-327.65239E-3	175.33246E-6
538.39677E-12	-244.12094E-15	0.0000000E+0	-16.442183E-9	-6.3605638E+0	46.254868E-12	-695.89537E-3	156.30950E-6	-228.48607E-15	0.0000000E+0	-16.442183E-9	-860.03143E-3	49.283043E-12	-538.28645E-3	204.28300E-6
536.15234E-12	-247.29529E-15	0.0000000E+0	-16.444426E-9	-2.0115051E+0	51.630627E-12	-505.06556E-3	102.81025E-6	-207.91217E-15	0.0000000E+0	-16.444426E-9	-2.8069417E+0	44.080420E-12	-619.82590E-3	250.48497E-6
533.90781E-12	-232.31281E-15	0.0000000E+0	-16.446672E-9	-1.4865237E+0	48.445876E-12	-480.55482E-3	137.42287E-6	-231.06896E-15	0.0000000E+0	-16.446672E-9	-2.6537697E+0	50.856215E-12	-577.14790E-3	164.23175E-6
531.66332E-12	-230.93485E-15	0.0000000E+0	-16.448915E-9	-1.1222742E+0	43.928798E-12	-553.11984E-3	196.01338E-6	-254.26511E-15	0.0000000E+0	-16.448915E-9	-2.9245980E+0	44.906634E-12	-435.19339E-3	225.11274E-6
529.41884E-12	-257.34384E-15	0.0000000E+0	-16.451160E-9	601.81481E-3	44.044185E-12	-370.36127E-3	226.86677E-6	-222.79058E-15	0.0000000E+0	-16.451160E-9	-1.6088650E+0	47.173845E-12	-315.59011E-3	185.17823E-6
527.17436E-12	-237.87122E-15	0.0000000E+0	-16.453404E-9	3.1324279E+0	48.808721E-12	-14.495445E-3	186.53471E-6	-247.53477E-15	0.0000000E+0	-16.453404E-9	841.90392E-3	51.408509E-12	-57.867110E-3	132.76403E-6
524.92988E-12	-236.61807E-15	0.0000000E+0	-16.455649E-9	-204.62479E-3	53.407438E-12	-282.57659E-3	128.86079E-6	-240.47656E-15	0.0000000E+0	-16.455649E-9	4.1576834E+0	51.724569E-12	128.24398E-3	138.30526E-6
522.68539E-12	-233.21015E-15	0.0000000E+0	-16.457893E-9	-3.4465861E+0	47.568685E-12	-622.53958E-3	196.54760E-6	-229.55561E-15	0.0000000E+0	-16.457893E-9	-1.3933026E+0	52.557760E-12	-413.80385E-3	135.52645E-6
520.44091E-12	-243.41651E-15	0.0000000E+0	-16.460138E-9	-3.0380688E+0	53.961051E-12	-703.67426E-3	118.35525E-6	-214.42420E-15	0.0000000E+0	-16.460138E-9	2.4244521E+0	45.644981E-12	-16.469426E-3	210.00442E-6
518.19637E-12	-228.59015E-15	0.0000000E+0	-16.462382E-9	-2.0300820E+0	52.862506E-12	-640.29193E-3	119.86458E-6	-215.41928E-15	0.0000000E+0	-16.462382E-9	1.4275500E+0	44.678369E-12	-152.25127E-3	201.37150E-6
515.95195E-12	-236.39172E-15	0.0000000E+0	-16.464627E-9	-18.091815E-3	49.723954E-12	-494.20461E-3	152.19112E-6	-212.92438E-15	0.0000000E+0	-16.464627E-9	-1.1443049E+0	44.981751E-12	-348.72797E-3	179.87727E-6
513.70741E-12	-240.13471E-15	0.0000000E+0	-16.466871E-9	3.0725338E+0	49.014268E-12	-223.22491E-3	161.36435E-6	-224.03570E-15	0.0000000E+0	-16.466871E-9	755.30082E-3	51.372205E-12	-244.41864E-3	102.97336E-6
511.46293E-12	-258.41213E-15	0.0000000E+0	-16.469116E-9	2.0076530E+0	51.902527E-12	-246.12778E-3	126.40265E-6	-229.26496E-15	0.0000000E+0	-16.469116E-9	2.6142833E+0	55.140895E-12	-113.29419E-3	73.560215E-6
509.21845E-12	-242.69177E-15	0.0000000E+0	-16.471359E-9	4.1151171E+0	46.994575E-12	86.730585E-3	186.25428E-6	-211.46900E-15	0.0000000E+0	-16.471359E-9	4.4025288E+0	50.130535E-12	-19.167524E-3	135.70873E-6
506.97396E-12	-246.39373E-15	0.0000000E+0	-16.473605E-9	-397.52716E-3	46.590082E-12	-273.31060E-3	197.93828E-6	-221.61569E-15	0.0000000E+0	-16.473605E-9	-2.1824818E+0	47.401548E-12	-665.46506E-3	160.47897E-6
504.72948E-12	-237.82300E-15	0.0000000E+0	-16.475850E-9	-1.9430747E+0	42.279479E-12	-429.46100E-3	263.19924E-6	-219.20118E-15	0.0000000E+0	-16.475850E-9	-6.0082202E+0	49.419798E-12	-829.63878E-3	131.88603E-6
502.48500E-12	-236.52328E-15	0.0000000E+0	-16.478094E-9	140.63001E-3	50.863508E-12	-327.62042E-3	188.04854E-6	-235.28453E-15	0.0000000E+0	-16.478094E-9	-4.4912858E+0	45.747264E-12	-575.98829E-3	169.31086E-6
500.24052E-12	-237.03310E-15	0.0000000E+0	-16.480339E-9	980.42381E-3	48.185116E-12	-248.59235E-3	214.57713E-6	-228.20515E-15	0.0000000E+0	-16.480339E-9	-2.3254163E+0	46.414452E-12	-294.64430E-3	142.18867E-6
497.99598E-12	-227.93310E-15	0.0000000E+0	-16.482582E-9	-2.9571476E+0	46.794263E-12	-656.07840E-3	238.55106E-6	-210.51580E-15	0.0000000E+0	-16.482582E-9	195.01138E-3	49.223268E-12	-45.770317E-3	109.07237E-6
495.75150E-12	-242.82887E-15	0.0000000E+0	-16.484828E-9	-1.9528607E+0	43.826144E-12	-616.30189E-3	289.80506E-6	-210.92871E-15	0.0000000E+0	-16.484828E-9	4.1941271E+0	52.169644E-12	202.35693E-3	77.975434E-6
493.50701E-12	-252.67307E-15	0.0000000E+0	-16.487071E-9	1.9946895E+0	49.365803E-12	-245.48042E-3	241.92184E-6	-217.24190E-15	0.0000000E+0	-16.487071E-9	137.29762E-3	50.773896E-12	-156.21848E-3	94.494797E-6
491.26253E-12	-218.68459E-15	0.0000000E+0	-16.489317E-9	2.4237590E+0	53.261666E-12	-116.33042E-3	192.74981E-6	-230.31208E-15	0.0000000E+0	-16.489317E-9	1.4939510E+0	57.853434E-12	-116.30429E-3	32.764161E-6
489.01805E-12	-254.42208E-15	0.0000000E+0	-16.491560E-9	1.3431085E+0	59.303791E-12	-189.53148E-3	105.22315E-6	-239.47977E-15	0.0000000E+0	-16.491560E-9	-4.2181478E+0	57.077829E-12	-553.96354E-3	72.930648E-6
486.77357E-12	-235.61031E-15	0.0000000E+0	-16.493805E-9	-158.83917E-3	60.236441E-12	-267.10060E-3	58.204922E-6	-239.78736E-15	0.0000000E+0	-16.493805E-9	5.8951721E+0	58.219693E-12	302.07056E-3	81.330269E-6
484.52908E-12	-233.00201E-15	0.0000000E+0	-16.496049E-9	-1.5624635E+0	51.233323E-12	-453.15340E-3	138.51916E-6	-214.30404E-15	0.0000000E+0	-16.496049E-9	965.35224E-3	50.227673E-12	-247.32912E-3	189.89369E-6
482.28460E-12	-233.12258E-15	0.0000000E+0	-16.498294E-9	-7.9102979E+0	42.268182E-12	-1.1632770E+0	250.32045E-6	-232.96816E-15	0.0000000E+0	-16.498294E-9	2.9016147E+0	46.425232E-12	-136.95468E-3	225.29111E-6
480.04012E-12	-210.94987E-15	0.0000000E+0	-16.500538E-9	3.7531600E+0	47.254322E-12	-215.63800E-3	216.07833E-6	-234.80011E-15	0.0000000E+0	-16.500538E-9	6.0852208E+0	44.494436E-12	37.740115E-3	222.73387E-6
477.79558E-12	-243.01503E-15	0.0000000E+0	-16.502783E-9	-1.9065143E+0	48.782655E-12	-666.64547E-3	204.70939E-6	-220.72046E-15	0.0000000E+0	-16.502783E-9	-7.3532820E+0	48.160441E-12	-1.1677476E+0	177.38184E-6
475.55110E-12	-260.11460E-15	0.0000000E+0	-16.505027E-9	18.699571E-3	51.705244E-12	-545.34638E-3	170.71210E-6	-237.47099E-15	0.0000000E+0	-16.505027E-9	-5.2548432E+0	48.923778E-12	-773.14329E-3	156.70010E-6
473.30662E-12	-245.58648E-15	0.0000000E+0	-16.507272E-9	-931.82844E-3	53.529233E-12	-623.48974E-3	136.41988E-6	-231.86097E-15	0.0000000E+0	-16.507272E-9	1.1338627E+0	53.137002E-12	-121.40295E-3	115.03340E-6
471.06213E-12	-247.18826E-15	0.0000000E+0	-16.509517E-9	654.90752E-3	54.316645E-12	-500.41533E-3	113.59761E-6	-225.05194E-15	0.0000000E+0	-16.509517E-9	1.5074602E+0	50.418152E-12	-135.79039E-3	153.51731E-6
468.81765E-12	-248.98847E-15	0.0000000E+0	-16.511761E-9	-3.6030281E+0	56.552072E-12	-931.92178E-3	73.029092E-6	-218.32795E-15	0.0000000E+0	-16.511761E-9	3.4912124E+0	51.997847E-12	-17.021766E-3	141.29079E-6
466.57317E-12	-230.27950E-15	0.0000000E+0	-16.514006E-9	1.7074182E+0	54.098472E-12	-512.99846E-3	75.609030E-6	-244.42853E-15	0.0000000E+0	-16.514006E-9	2.8203676E+0	51.492980E-12	-133.62348E-3	158.00768E-6
464.32866E-12	-237.45112E-15	0.0000000E+0	-16.516250E-9	596.82727E-3	42.594865E-12	-598.67507E-3	212.61726E-6	-217.44541E-15	0.0000000E+0	-16.516250E-9	2.1318142E+0	48.744848E-12	-230.13090E-3	184.74764E-6
462.08418E-12	-243.40848E-15	0.0000000E+0	-16.518495E-9	2.0089846E+0	40.262019E-12	-407.23658E-3	268.77172E-6	-236.62653E-15	0.0000000E+0	-16.518495E-9	2.2222602E+0	46.173232E-12	-301.84391E-3	204.49658E-6
459.83969E-12	-237.04327E-15	0.0000000E+0	-16.520739E-9	6.1146321E+0	44.782136E-12	13.444970E-3	247.66635E-6	-220.44968E-15	0.0000000E+0	-16.520739E-9	1.7594676E+0	50.219405E-12	-424.58698E-3	155.03402E-6
457.59521E-12	-232.44861E-15	0.0000000E+0	-16.522984E-9	1.9444025E+0	49.538772E-12	-209.30059E-3	210.41869E-6	-231.54493E-15	0.0000000E+0	-16.522984E-9	1.0432117E+0	51.047427E-12	-496.20873E-3	142.81171E-6
455.35070E-12	-242.24204E-15	0.0000000E+0	-16.525227E-9	4.1214466E+0	47.992641E-12	23.078620E-3	226.25251E-6	-240.36358E-15	0.0000000E+0	-16.525227E-9	1.2097083E+0	50.665978E-12	-496.42861E-3	152.34271E-6
453.10622E-12	-240.40207E-15	0.0000000E+0	-16.527473E-9	-4.4668016E+0	55.409264E-12	-709.71268E-3	144.71576E-6	-233.17378E-15	0.0000000E+0	-16.527473E-9	1.9820825E+0	49.374369E-12	-482.38984E-3	165.19257E-6
450.86174E-12	-248.96434E-15	0.0000000E+0	-16.529716E-9	142.14250E-3	56.109364E-12	-351.87021E-3	114.55149E-6	-229.33942E-15	0.0000000E+0	-16.529716E-9	-2.7833655E+0	50.202620E-12	-921.06825E-3	151.25789E-6
448.61725E-12	-235.91152E-15	0.0000000E+0	-16.531962E-9	-1.0289693E+0	55.884526E-12	-433.87070E-3	92.107090E-6	-234.00894E-15	0.0000000E+0	-16.531962E-9	-1.9814595E+0	56.458605E-12	-770.25914E-3	94.102375E-6
446.37277E-12	-245.41344E-15	0.0000000E+0	-16.534205E-9	-1.4319108E+0	54.512193E-12	-496.28171E-3	90.010450E-6	-236.55671E-15	0.0000000E+0	-16.534205E-9	61.242767E-3	52.697850E-12	-574.57411E-3	156.00178E-6
444.12826E-12	-226.00513E-15	0.0000000E+0	-16.536450E-9	762.12299E-3	49.937332E-12	-335.37114E-3	134.58551E-6	-220.90576E-15	0.0000000E+0	-16.536450E-9	1.8812547E+0	52.440250E-12	-483.07481E-3	166.29459E-6
441.88378E-12	-238.27229E-15	0.0000000E+0	-16.538696E-9	-2.9398911E+0	41.469897E-12	-670.96061E-3	245.13219E-6	-237.79676E-15	0.0000000E+0	-16.538696E-9	-1.3114933E+0	44.565913E-12	-783.41126E-3	250.19576E-6
439.63930E-12	-219.91618E-15	0.0000000E+0	-16.540939E-9	338.19693E-3	43.028227E-12	-408.84778E-3	256.64314E-6	-240.94699E-15	0.0000000E+0	-16.540939E-9	-655.56020E-3	47.620179E-12	-646.39419E-3	192.41564E-6
437.39481E-12	-250.22809E-15	0.0000000E+0	-16.543185E-9	-4.3825603E+0	46.844150E-12	-933.25096E-3	233.17421E-6	-249.04896E-15	0.0000000E+0	-16.543185E-9	-2.3732319E+0	51.950021E-12	-776.95364E-3	150.45177E-6
435.15030E-12	-251.73044E-15	0.0000000E+0	-16.545428E-9	-2.5076711E+0	49.031043E-12	-842.64350E-3	215.94629E-6	-223.15528E-15	0.0000000E+0	-16.545428E-9	2.0807257E+0	45.873451E-12	-350.62823E-3	215.47932E-6
432.90582E-12	-245.46719E-15	0.0000000E+0	-16.547673E-9	3.3938656E+0	54.282894E-12	-302.33750E-3	156.60409E-6	-236.75346E-15	0.0000000E+0	-16.547673E-9	1.0702782E+0	49.651460E-12	-516.06917E-3	165.36708E-6
430.66134E-12	-252.09470E-15	0.0000000E+0	-16.549917E-9	2.5858605E+0	52.605663E-12	-281.73029E-3	156.20500E-6	-222.57142E-15	0.0000000E+0	-16.549917E-9	-3.9456334E+0	46.027234E-12	-892.67838E-3	193.22702E-6
428.41686E-12	-246.91157E-15	0.0000000E+0	-16.552162E-9	-242.63422E-3	48.311449E-12	-476.23366E-3	204.39982E-6	-239.86011E-15	0.0000000E+0	-16.552162E-9	-1.8168535E+0	43.482551E-12	-648.79370E-3	204.44230E-6
426.17235E-12	-232.98846E-15	0.0000000E+0	-16.554406E-9	1.8348792E+0	49.109872E-12	-308.46137E-3	203.32912E-6	-244.71240E-15	0.0000000E+0	-16.554406E-9	5.7555857E+0	51.158723E-12	-30.644199E-3	108.49214E-6
423.92787E-12	-249.37051E-15	0.0000000E+0	-16.556651E-9	2.0056860E+0	47.209275E-12	-240.37689E-3	226.82201E-6	-222.65943E-15	0.0000000E+0	-16.556651E-9	2.8525622E+0	54.919652E-12	-432.53234E-3	82.050989E-6
421.68338E-12	-244.39213E-15	0.0000000E+0	-16.558895E-9	-2.2643001E+0	43.192155E-12	-640.41734E-3	293.43038E-6	-239.70485E-15	0.0000000E+0	-16.558895E-9	-1.0805782E+0	42.909409E-12	-738.61021E-3	213.40068E-6
419.43890E-12	-256.62927E-15	0.0000000E+0	-16.561140E-9	-2.9856086E+0	48.358911E-12	-776.33280E-3	252.23289E-6	-222.37724E-15	0.0000000E+0	-16.561140E-9	4.4348054E+0	46.612984E-12	-295.08829E-3	145.43463E-6
417.19439E-12	-247.42689E-15	0.0000000E+0	-16.563384E-9	-61.170910E-3	49.290967E-12	-546.71890E-3	245.88598E-6	-226.24798E-15	0.0000000E+0	-16.563384E-9	-1.8402560E+0	53.659851E-12	-916.49055E-3	71.799339E-6
414.94991E-12	-223.29151E-15	0.0000000E+0	-16.565629E-9	-3.3423615E+0	51.920263E-12	-903.57858E-3	216.55225E-6	-232.52011E-15	0.0000000E+0	-16.565629E-9	-4.3299704E+0	50.965079E-12	-990.35126E-3	112.55018E-6
412.70543E-12	-246.53291E-15	0.0000000E+0	-16.567872E-9	1.2589166E+0	55.296476E-12	-503.68148E-3	162.43843E-6	-231.33169E-15	0.0000000E+0	-16.567872E-9	-774.57201E-3	53.370232E-12	-588.74553E-3	89.854286E-6
410.46094E-12	-239.67522E-15	0.0000000E+0	-16.570118E-9	848.55551E-3	55.312560E-12	-521.58648E-3	139.94970E-6	-219.96103E-15	0.0000000E+0	-16.570118E-9	-2.2446194E+0	50.831936E-12	-636.79379E-3	122.04027E-6
408.21646E-12	-239.74293E-15	0.0000000E+0	-16.572363E-9	2.2439249E+0	56.895318E-12	-338.65455E-3	104.87891E-6	-238.41234E-15	0.0000000E+0	-16.572363E-9	1.1229813E+0	53.985174E-12	-339.78018E-3	99.522884E-6
405.97195E-12	-252.41286E-15	0.0000000E+0	-16.574607E-9	-587.76301E-3	52.741089E-12	-569.31871E-3	135.31685E-6	-231.66170E-15	0.0000000E+0	-16.574607E-9	-225.92932E-3	51.780105E-12	-482.79950E-3	137.47977E-6
403.72747E-12	-246.23592E-15	0.0000000E+0	-16.576852E-9	2.1419911E+0	45.769163E-12	-308.84978E-3	212.07336E-6	-229.37538E-15	0.0000000E+0	-16.576852E-9	3.2465611E+0	48.230229E-12	-251.61555E-3	176.10981E-6
401.48299E-12	-247.92654E-15	0.0000000E+0	-16.579095E-9	-2.3972366E+0	52.043553E-12	-645.31112E-3	150.23188E-6	-222.49062E-15	0.0000000E+0	-16.579095E-9	-2.6821148E+0	42.399032E-12	-763.74298E-3	221.50847E-6
399.23850E-12	-255.14638E-15	0.0000000E+0	-16.581341E-9	-2.2485383E+0	51.570217E-12	-742.44678E-3	150.17923E-6	-222.10223E-15	0.0000000E+0	-16.581341E-9	5.5326743E+0	50.730635E-12	-103.05693E-3	111.06894E-6
396.99399E-12	-229.10333E-15	0.0000000E+0	-16.583584E-9	-196.77188E-3	52.218539E-12	-574.59331E-3	134.49138E-6	-233.01302E-15	0.0000000E+0	-16.583584E-9	-1.2826241E+0	52.598401E-12	-746.65856E-3	104.06961E-6
394.74951E-12	-244.29230E-15	0.0000000E+0	-16.585830E-9	-3.0636578E+0	43.301345E-12	-892.82078E-3	239.92344E-6	-237.67999E-15	0.0000000E+0	-16.585830E-9	1.8138459E+0	54.366699E-12	-428.26959E-3	98.013552E-6
392.50503E-12	-245.05045E-15	0.0000000E+0	-16.588073E-9	-1.7129432E+0	41.454767E-12	-844.82437E-3	289.90465E-6	-234.21033E-15	0.0000000E+0	-16.588073E-9	-950.07586E-3	55.913406E-12	-724.40654E-3	98.998353E-6
390.26055E-12	-210.14264E-15	0.0000000E+0	-16.590318E-9	3.0441856E+0	47.347067E-12	-386.83000E-3	247.15412E-6	-234.92110E-15	0.0000000E+0	-16.590318E-9	970.71975E-3	52.599935E-12	-545.27414E-3	146.61952E-6
388.01604E-12	-242.63594E-15	0.0000000E+0	-16.592562E-9	3.1764688E+0	53.877763E-12	-312.18791E-3	173.99974E-6	-221.87123E-15	0.0000000E+0	-16.592562E-9	-2.2718310E+0	48.875841E-12	-853.50227E-3	191.57102E-6
385.77155E-12	-235.03617E-15	0.0000000E+0	-16.594807E-9	4.3342891E+0	56.275005E-12	-88.104054E-3	127.76286E-6	-232.62802E-15	0.0000000E+0	-16.594807E-9	-52.368581E-3	48.771140E-12	-634.11999E-3	183.41873E-6
383.52707E-12	-235.87556E-15	0.0000000E+0	-16.597051E-9	425.43983E-3	58.851084E-12	-366.62310E-3	75.449781E-6	-235.93521E-15	0.0000000E+0	-16.597051E-9	-179.29587E-3	51.112631E-12	-642.13341E-3	163.78683E-6
381.28259E-12	-235.05140E-15	0.0000000E+0	-16.599296E-9	1.8423229E+0	52.865670E-12	-208.83685E-3	112.31002E-6	-224.51631E-15	0.0000000E+0	-16.599296E-9	-5.5931883E+0	47.968587E-12	-1.0145494E+0	200.48211E-6
379.03808E-12	-233.14163E-15	0.0000000E+0	-16.601540E-9	-2.9547622E+0	47.179344E-12	-678.57319E-3	180.29504E-6	-240.03103E-15	0.0000000E+0	-16.601540E-9	-3.2198079E+0	46.629138E-12	-688.88921E-3	198.76593E-6
376.79360E-12	-240.32171E-15	0.0000000E+0	-16.603785E-9	-4.0537233E+0	50.009989E-12	-864.04383E-3	151.68577E-6	-222.68820E-15	0.0000000E+0	-16.603785E-9	4.1535792E+0	50.207363E-12	-63.952670E-3	157.64406E-6
374.54911E-12	-236.75259E-15	0.0000000E+0	-16.606030E-9	-3.3599939E+0	51.397581E-12	-909.63835E-3	133.48694E-6	-216.01879E-15	0.0000000E+0	-16.606030E-9	2.7074876E+0	53.622991E-12	-334.00944E-3	129.98832E-6
372.30463E-12	-230.04892E-15	0.0000000E+0	-16.608274E-9	1.3969877E+0	47.857843E-12	-539.88057E-3	173.41386E-6	-247.92020E-15	0.0000000E+0	-16.608274E-9	1.2085909E+0	57.308470E-12	-518.25804E-3	109.33712E-6
370.06015E-12	-253.64360E-15	0.0000000E+0	-16.610519E-9	2.0222738E+0	53.331176E-12	-430.22943E-3	108.19422E-6	-232.50659E-15	0.0000000E+0	-16.610519E-9	2.9345734E+0	52.728245E-12	-444.72328E-3	179.17897E-6
367.81564E-12	-239.53224E-15	0.0000000E+0	-16.612763E-9	-740.79239E-3	43.383280E-12	-651.45516E-3	224.59343E-6	-240.79469E-15	0.0000000E+0	-16.612763E-9	714.77407E-3	55.384707E-12	-665.51751E-3	163.42336E-6
365.57116E-12	-233.31256E-15	0.0000000E+0	-16.615008E-9	-2.9618318E+0	50.279475E-12	-904.04284E-3	160.54738E-6	-243.10851E-15	0.0000000E+0	-16.615008E-9	4.6981792E+0	46.387463E-12	-422.81681E-3	268.34733E-6
363.32667E-12	-239.33636E-15	0.0000000E+0	-16.617252E-9	690.69910E-3	42.125869E-12	-618.76655E-3	263.91100E-6	-214.09335E-15	0.0000000E+0	-16.617252E-9	2.2656422E+0	48.031787E-12	-717.40705E-3	237.78461E-6
361.08219E-12	-227.90136E-15	0.0000000E+0	-16.619497E-9	-2.8970208E+0	45.614606E-12	-930.65161E-3	251.84927E-6	-212.13322E-15	0.0000000E+0	-16.619497E-9	-9.0739660E+0	43.579151E-12	-1.6162868E+0	270.43547E-6
358.83768E-12	-250.26574E-15	0.0000000E+0	-16.621740E-9	-1.3747944E+0	50.258200E-12	-891.10780E-3	203.73180E-6	-222.49950E-15	0.0000000E+0	-16.621740E-9	2.1471531E+0	44.566132E-12	-548.79463E-3	231.97298E-6
356.59320E-12	-237.69355E-15	0.0000000E+0	-16.623986E-9	1.0641854E+0	50.625674E-12	-675.24743E-3	204.06207E-6	-233.61293E-15	0.0000000E+0	-16.623986E-9	592.45765E-3	48.669603E-12	-727.48196E-3	177.89834E-6
354.34872E-12	-258.68248E-15	0.0000000E+0	-16.626229E-9	-890.91492E-3	49.647775E-12	-887.00247E-3	215.59960E-6	-237.86149E-15	0.0000000E+0	-16.626229E-9	1.3992630E+0	49.959363E-12	-698.15016E-3	163.96838E-6
352.10423E-12	-240.24513E-15	0.0000000E+0	-16.628475E-9	-2.8817213E+0	48.766140E-12	-1.0889159E+0	226.79516E-6	-220.51906E-15	0.0000000E+0	-16.628475E-9	959.87415E-3	51.757629E-12	-772.41623E-3	148.47572E-6
349.85972E-12	-231.82839E-15	0.0000000E+0	-16.630718E-9	-1.4150658E+0	49.591099E-12	-1.0359575E+0	222.66335E-6	-224.06193E-15	0.0000000E+0	-16.630718E-9	-1.3815867E+0	51.645705E-12	-961.00748E-3	156.89128E-6
347.61524E-12	-228.43446E-15	0.0000000E+0	-16.632963E-9	-1.7901179E+0	48.783595E-12	-1.0900342E+0	236.47973E-6	-236.48225E-15	0.0000000E+0	-16.632963E-9	-2.6118188E+0	45.837840E-12	-1.0328537E+0	218.84841E-6
345.37076E-12	-244.03675E-15	0.0000000E+0	-16.635209E-9	-2.8234377E+0	49.588660E-12	-1.2303585E+0	232.93380E-6	-232.48967E-15	0.0000000E+0	-16.635209E-9	677.16914E-3	53.272380E-12	-727.96446E-3	128.37334E-6
343.12628E-12	-237.74811E-15	0.0000000E+0	-16.637452E-9	643.23407E-3	52.675957E-12	-968.74946E-3	196.27839E-6	-243.69195E-15	0.0000000E+0	-16.637452E-9	832.09068E-3	48.384952E-12	-696.44570E-3	193.41410E-6
340.88177E-12	-226.10243E-15	0.0000000E+0	-16.639698E-9	3.4146442E+0	54.386905E-12	-651.98439E-3	164.91988E-6	-225.06378E-15	0.0000000E+0	-16.639698E-9	2.8475900E+0	46.465588E-12	-577.86578E-3	199.27419E-6
338.63728E-12	-244.70310E-15	0.0000000E+0	-16.641941E-9	2.8396614E+0	54.715545E-12	-580.42639E-3	144.48944E-6	-242.00385E-15	0.0000000E+0	-16.641941E-9	887.03829E-3	51.057526E-12	-830.17206E-3	141.20633E-6
336.39280E-12	-240.60346E-15	0.0000000E+0	-16.644186E-9	179.27261E-3	55.321674E-12	-783.08415E-3	116.10521E-6	-215.03005E-15	0.0000000E+0	-16.644186E-9	-1.3916603E+0	48.979130E-12	-999.75026E-3	159.84276E-6
334.14832E-12	-224.82558E-15	0.0000000E+0	-16.646430E-9	-1.6826164E+0	55.731867E-12	-980.18420E-3	89.490626E-6	-213.05046E-15	0.0000000E+0	-16.646430E-9	1.1343505E+0	51.449137E-12	-784.53290E-3	142.19174E-6
331.90384E-12	-233.72547E-15	0.0000000E+0	-16.648675E-9	-4.0429316E+0	49.475739E-12	-1.2220459E+0	153.36441E-6	-225.67175E-15	0.0000000E+0	-16.648675E-9	766.85858E-3	46.461144E-12	-868.30014E-3	189.19721E-6
329.65933E-12	-224.82220E-15	0.0000000E+0	-16.650919E-9	-1.3479315E+0	46.837669E-12	-1.1028844E+0	189.06628E-6	-242.15279E-15	0.0000000E+0	-16.650919E-9	-239.71036E-3	48.795083E-12	-971.21447E-3	157.91434E-6
327.41485E-12	-232.88142E-15	0.0000000E+0	-16.653164E-9	2.8055229E+0	41.907769E-12	-693.84742E-3	263.21114E-6	-237.15283E-15	0.0000000E+0	-16.653164E-9	-540.68255E-3	49.552244E-12	-1.0014066E+0	148.41720E-6
325.17036E-12	-235.71520E-15	0.0000000E+0	-16.655408E-9	589.12659E-3	54.624194E-12	-809.43042E-3	128.59463E-6	-226.22598E-15	0.0000000E+0	-16.655408E-9	-2.1993036E+0	44.780599E-12	-1.0840442E+0	191.52257E-6
322.92588E-12	-211.84383E-15	0.0000000E+0	-16.657653E-9	-551.40913E-3	49.849316E-12	-947.94363E-3	174.71163E-6	-242.88343E-15	0.0000000E+0	-16.657653E-9	-2.9508357E+0	49.096512E-12	-1.0800940E+0	127.95087E-6
320.68137E-12	-239.11168E-15	0.0000000E+0	-16.659897E-9	4.0555911E+0	49.223795E-12	-506.94191E-3	180.50431E-6	-224.47444E-15	0.0000000E+0	-16.659897E-9	4.2154627E+0	55.280371E-12	-466.11449E-3	73.376774E-6
318.43689E-12	-239.95741E-15	0.0000000E+0	-16.662142E-9	1.4506464E+0	52.407155E-12	-639.83727E-3	142.05682E-6	-217.20974E-15	0.0000000E+0	-16.662142E-9	2.5641239E+0	56.217385E-12	-695.19812E-3	84.781350E-6
316.19241E-12	-224.61659E-15	0.0000000E+0	-16.664385E-9	-2.3552995E+0	46.015670E-12	-994.50338E-3	217.87765E-6	-219.12164E-15	0.0000000E+0	-16.664385E-9	-6.0774183E+0	49.544480E-12	-1.3992977E+0	164.83472E-6
313.94792E-12	-242.25050E-15	0.0000000E+0	-16.666631E-9	-192.92217E-3	53.299639E-12	-856.68403E-3	138.99527E-6	-244.29143E-15	0.0000000E+0	-16.666631E-9	-1.0694296E+0	49.400810E-12	-852.08464E-3	164.43110E-6
311.70341E-12	-244.54952E-15	0.0000000E+0	-16.668876E-9	-5.2652249E+0	49.533593E-12	-1.3097329E+0	177.95648E-6	-229.89577E-15	0.0000000E+0	-16.668876E-9	6.7630773E+0	55.164484E-12	-278.17661E-3	111.37791E-6
309.45893E-12	-252.54443E-15	0.0000000E+0	-16.671120E-9	-688.51441E-3	46.812606E-12	-1.0245640E+0	211.60528E-6	-237.41515E-15	0.0000000E+0	-16.671120E-9	3.9594760E+0	53.136804E-12	-694.69172E-3	145.15614E-6
307.21445E-12	-240.46132E-15	0.0000000E+0	-16.673365E-9	-2.5184653E+0	47.965611E-12	-1.2557433E+0	205.31876E-6	-239.54450E-15	0.0000000E+0	-16.673365E-9	-2.6786976E+0	56.593671E-12	-1.2802793E+0	130.33485E-6
304.96997E-12	-243.15082E-15	0.0000000E+0	-16.675608E-9	460.76623E-3	45.835124E-12	-992.83111E-3	237.05156E-6	-227.43133E-15	0.0000000E+0	-16.675608E-9	1.5706514E+0	53.019457E-12	-919.00671E-3	182.92108E-6
302.72548E-12	-246.34252E-15	0.0000000E+0	-16.677854E-9	-2.1302490E+0	44.020083E-12	-1.2816898E+0	277.14900E-6	-211.69745E-15	0.0000000E+0	-16.677854E-9	3.0807807E+0	45.708194E-12	-837.19921E-3	263.36854E-6
300.48097E-12	-241.18180E-15	0.0000000E+0	-16.680097E-9	-318.65498E-3	47.073474E-12	-1.1721106E+0	258.85177E-6	-240.95038E-15	0.0000000E+0	-16.680097E-9	-1.0484328E+0	47.815717E-12	-1.2074710E+0	229.21014E-6
298.23649E-12	-232.18208E-15	0.0000000E+0	-16.682343E-9	801.86611E-3	50.813780E-12	-1.0591435E+0	217.56507E-6	-231.14724E-15	0.0000000E+0	-16.682343E-9	-2.1788125E+0	49.337701E-12	-1.2679398E+0	205.95551E-6
295.99201E-12	-247.39347E-15	0.0000000E+0	-16.684586E-9	-775.91115E-3	48.424331E-12	-1.2213711E+0	242.99980E-6	-226.53102E-15	0.0000000E+0	-16.684586E-9	2.2552698E+0	48.642153E-12	-844.52057E-3	210.47900E-6
293.74753E-12	-239.51235E-15	0.0000000E+0	-16.686831E-9	1.9798605E+0	49.176052E-12	-975.08055E-3	245.99271E-6	-234.05504E-15	0.0000000E+0	-16.686831E-9	-1.1775111E+0	52.117800E-12	-1.1573803E+0	176.08596E-6
291.50302E-12	-230.93864E-15	0.0000000E+0	-16.689075E-9	-1.5101196E+0	51.582461E-12	-1.2375454E+0	218.60997E-6	-223.60416E-15	0.0000000E+0	-16.689075E-9	3.8888314E+0	55.235542E-12	-718.29176E-3	154.49950E-6
289.25853E-12	-249.46443E-15	0.0000000E+0	-16.691320E-9	-2.3693464E+0	49.823631E-12	-1.3748723E+0	233.65988E-6	-263.50683E-15	0.0000000E+0	-16.691320E-9	-1.5903814E+0	52.808251E-12	-1.2394463E+0	199.33801E-6
287.01405E-12	-233.14120E-15	0.0000000E+0	-16.693564E-9	-3.6492248E+0	49.749913E-12	-1.5721736E+0	240.17936E-6	-249.64636E-15	0.0000000E+0	-16.693564E-9	-1.6741495E+0	47.440111E-12	-1.2333895E+0	255.06687E-6
284.76957E-12	-263.04271E-15	0.0000000E+0	-16.695809E-9	-1.1956465E+0	58.214544E-12	-1.4192739E+0	130.24712E-6	-243.61706E-15	0.0000000E+0	-16.695809E-9	-1.5826526E+0	46.842738E-12	-1.1724706E+0	248.98202E-6
282.52506E-12	-244.48268E-15	0.0000000E+0	-16.698053E-9	-1.3206210E+0	46.826668E-12	-1.4635851E+0	245.34570E-6	-247.66381E-15	0.0000000E+0	-16.698053E-9	4.2765827E+0	48.521975E-12	-683.84910E-3	217.13160E-6
280.28058E-12	-229.27385E-15	0.0000000E+0	-16.700298E-9	1.5053203E+0	43.719944E-12	-1.1809728E+0	296.45025E-6	-228.47295E-15	0.0000000E+0	-16.700298E-9	412.99611E-3	50.201763E-12	-1.0644913E+0	199.50717E-6
278.03609E-12	-230.77238E-15	0.0000000E+0	-16.702543E-9	3.0951400E+0	43.443995E-12	-1.0038884E+0	319.36061E-6	-232.03062E-15	0.0000000E+0	-16.702543E-9	271.72813E-3	55.431812E-12	-1.0814900E+0	158.52728E-6
275.79161E-12	-235.52059E-15	0.0000000E+0	-16.704787E-9	1.2366730E+0	49.241149E-12	-1.0813982E+0	278.80698E-6	-222.17711E-15	0.0000000E+0	-16.704787E-9	5.9096875E+0	45.365149E-12	-714.13577E-3	265.16255E-6
273.54710E-12	-229.49427E-15	0.0000000E+0	-16.707032E-9	2.0906441E+0	55.881928E-12	-964.66100E-3	196.32318E-6	-236.09006E-15	0.0000000E+0	-16.707032E-9	-176.98076E-3	47.110673E-12	-1.3696321E+0	231.85649E-6
271.30262E-12	-226.49802E-15	0.0000000E+0	-16.709276E-9	-4.9697065E+0	54.275626E-12	-1.6048254E+0	186.01854E-6	-251.46432E-15	0.0000000E+0	-16.709276E-9	4.2247024E+0	42.524845E-12	-954.31310E-3	258.92569E-6
269.05814E-12	-243.14109E-15	0.0000000E+0	-16.711521E-9	-3.2813642E+0	51.691977E-12	-1.6498696E+0	207.14762E-6	-252.98023E-15	0.0000000E+0	-16.711521E-9	-569.37492E-3	50.750893E-12	-1.4983267E+0	161.53461E-6
266.81365E-12	-240.99735E-15	0.0000000E+0	-16.713765E-9	244.43029E-3	53.641772E-12	-1.3554748E+0	176.15438E-6	-231.39430E-15	0.0000000E+0	-16.713765E-9	-17.161751E-3	51.093754E-12	-1.4399573E+0	155.67774E-6
264.56917E-12	-241.10523E-15	0.0000000E+0	-16.716010E-9	2.6320705E+0	57.971513E-12	-1.1008698E+0	106.10721E-6	-237.61060E-15	0.0000000E+0	-16.716010E-9	-400.35683E-3	52.580447E-12	-1.5237181E+0	151.70765E-6
262.32466E-12	-236.10996E-15	0.0000000E+0	-16.718253E-9	4.3815293E+0	50.163089E-12	-862.69212E-3	171.95806E-6	-219.17410E-15	0.0000000E+0	-16.718253E-9	-2.7290370E+0	48.006769E-12	-1.6355643E+0	198.55508E-6
260.08018E-12	-207.67185E-15	0.0000000E+0	-16.720499E-9	-2.0702627E+0	48.887925E-12	-1.3379697E+0	191.08191E-6	-219.73638E-15	0.0000000E+0	-16.720499E-9	-5.4638726E-3	44.672224E-12	-1.3864135E+0	223.40818E-6
257.83570E-12	-238.51009E-15	0.0000000E+0	-16.722742E-9	1.0384853E+0	50.051630E-12	-1.1178710E+0	180.02313E-6	-220.80845E-15	0.0000000E+0	-16.722742E-9	3.3269525E+0	48.090060E-12	-1.1273248E+0	173.46149E-6
255.59121E-12	-240.40080E-15	0.0000000E+0	-16.724988E-9	454.64271E-3	49.020777E-12	-1.0982019E+0	190.79134E-6	-229.01323E-15	0.0000000E+0	-16.724988E-9	811.76621E-3	48.280598E-12	-1.4116606E+0	166.77898E-6
253.34670E-12	-227.28411E-15	0.0000000E+0	-16.727231E-9	-7.1810160E+0	46.241223E-12	-1.8599296E+0	229.07004E-6	-254.45634E-15	0.0000000E+0	-16.727231E-9	-2.0540211E+0	51.504585E-12	-1.5745275E+0	125.59828E-6
251.10222E-12	-223.55678E-15	0.0000000E+0	-16.729476E-9	1.1088352E+0	45.310457E-12	-1.2488141E+0	251.51868E-6	-213.13677E-15	0.0000000E+0	-16.729476E-9	2.7476172E+0	52.632499E-12	-1.2095926E+0	123.09254E-6
248.85774E-12	-241.43017E-15	0.0000000E+0	-16.731722E-9	-2.9742830E+0	46.925436E-12	-1.6477554E+0	249.48412E-6	-221.30641E-15	0.0000000E+0	-16.731722E-9	-3.6236875E+0	50.223728E-12	-1.7538674E+0	154.00878E-6
246.61326E-12	-227.30355E-15	0.0000000E+0	-16.733965E-9	-2.2345271E+0	51.767979E-12	-1.6228691E+0	198.87257E-6	-225.15982E-15	0.0000000E+0	-16.733965E-9	-3.6094704E+0	50.175069E-12	-1.6266567E+0	158.58491E-6
244.36875E-12	-243.50029E-15	0.0000000E+0	-16.736211E-9	391.30473E-3	50.890400E-12	-1.4809800E+0	204.45554E-6	-228.97726E-15	0.0000000E+0	-16.736211E-9	5.7098427E+0	47.922229E-12	-883.81338E-3	173.55246E-6
242.12427E-12	-222.77112E-15	0.0000000E+0	-16.738454E-9	4.5238442E+0	52.524721E-12	-1.0556986E+0	181.48517E-6	-249.83927E-15	0.0000000E+0	-16.738454E-9	-1.2728883E+0	51.211133E-12	-1.6011122E+0	138.30813E-6
239.87978E-12	-236.24998E-15	0.0000000E+0	-16.740699E-9	3.5539854E+0	50.171693E-12	-983.07776E-3	202.20919E-6	-215.86689E-15	0.0000000E+0	-16.740699E-9	-1.3102874E+0	54.094351E-12	-1.5100501E+0	112.21380E-6
237.63530E-12	-239.49839E-15	0.0000000E+0	-16.742943E-9	-1.2450022E+0	49.882345E-12	-1.3754472E+0	207.70020E-6	-211.97288E-15	0.0000000E+0	-16.742943E-9	-4.7837863E+0	55.648645E-12	-1.7107891E+0	119.65887E-6
235.39079E-12	-228.97260E-15	0.0000000E+0	-16.745188E-9	-2.4232156E+0	55.176926E-12	-1.5236914E+0	136.76359E-6	-219.45080E-15	0.0000000E+0	-16.745188E-9	2.8007016E+0	51.099885E-12	-1.0142077E+0	182.62902E-6
233.14634E-12	-245.84287E-15	0.0000000E+0	-16.747432E-9	-2.5839362E+0	51.220344E-12	-1.5933807E+0	166.45732E-6	-229.58903E-15	0.0000000E+0	-16.747432E-9	1.6019816E+0	47.805020E-12	-1.2110821E+0	213.68146E-6
230.90185E-12	-231.47426E-15	0.0000000E+0	-16.749677E-9	-317.17157E-3	52.579229E-12	-1.4618309E+0	143.51259E-6	-224.58232E-15	0.0000000E+0	-16.749677E-9	3.9887450E+0	54.404755E-12	-1.0495439E+0	140.49228E-6
228.65732E-12	-246.21009E-15	0.0000000E+0	-16.751921E-9	2.0261824E+0	53.299358E-12	-1.2396268E+0	120.71277E-6	-230.46861E-15	0.0000000E+0	-16.751921E-9	3.3749762E+0	51.983976E-12	-1.2198006E+0	184.09186E-6
226.41283E-12	-237.46508E-15	0.0000000E+0	-16.754166E-9	1.6517118E+0	41.945353E-12	-1.2275087E+0	251.24382E-6	-239.08970E-15	0.0000000E+0	-16.754166E-9	-1.7251923E+0	49.483886E-12	-1.6613595E+0	217.25027E-6
224.16835E-12	-260.60577E-15	0.0000000E+0	-16.756410E-9	-1.1192086E+0	47.116408E-12	-1.4101549E+0	220.26323E-6	-242.31778E-15	0.0000000E+0	-16.756410E-9	-2.4770076E+0	49.248008E-12	-1.6611382E+0	217.38550E-6
221.92387E-12	-251.29169E-15	0.0000000E+0	-16.758655E-9	-236.10368E-3	49.228708E-12	-1.3108637E+0	203.32640E-6	-228.69212E-15	0.0000000E+0	-16.758655E-9	1.0101272E+0	46.517741E-12	-1.3470659E+0	236.50168E-6
219.67939E-12	-237.56450E-15	0.0000000E+0	-16.760898E-9	-4.6118474E+0	50.415474E-12	-1.8085551E+0	193.44431E-6	-236.47168E-15	0.0000000E+0	-16.760898E-9	-1.5563965E+0	45.078632E-12	-1.4980204E+0	236.30964E-6
217.43490E-12	-238.63149E-15	0.0000000E+0	-16.763144E-9	4.1085324E+0	49.722827E-12	-1.0478169E+0	197.98992E-6	-229.96305E-15	0.0000000E+0	-16.763144E-9	1.6665196E+0	45.450019E-12	-1.2391101E+0	216.60319E-6
215.19042E-12	-232.90175E-15	0.0000000E+0	-16.765389E-9	1.7598295E+0	48.124081E-12	-1.1309029E+0	222.74419E-6	-227.88149E-15	0.0000000E+0	-16.765389E-9	1.8351080E+0	53.322985E-12	-1.3207737E+0	127.65649E-6
212.94594E-12	-254.12379E-15	0.0000000E+0	-16.767633E-9	3.1666818E+0	51.799683E-12	-973.67656E-3	176.77093E-6	-236.90238E-15	0.0000000E+0	-16.767633E-9	1.4258986E+0	51.370578E-12	-1.4527936E+0	155.50574E-6
210.70140E-12	-234.72649E-15	0.0000000E+0	-16.769878E-9	1.7582312E+0	50.851580E-12	-1.0196949E+0	186.42805E-6	-227.37041E-15	0.0000000E+0	-16.769878E-9	-3.0001299E+0	51.223178E-12	-1.8028361E+0	168.75588E-6
208.45692E-12	-237.13337E-15	0.0000000E+0	-16.772121E-9	-1.2465031E+0	49.016277E-12	-1.2572041E+0	204.70211E-6	-227.03153E-15	0.0000000E+0	-16.772121E-9	4.3362346E+0	43.131783E-12	-1.1261477E+0	235.20534E-6
206.21244E-12	-248.95971E-15	0.0000000E+0	-16.774367E-9	-853.93900E-3	52.109837E-12	-1.2903731E+0	168.46426E-6	-226.24967E-15	0.0000000E+0	-16.774367E-9	-944.80467E-3	55.175614E-12	-1.6739579E+0	100.27278E-6
203.96795E-12	-211.78800E-15	0.0000000E+0	-16.776610E-9	-1.2638217E+0	46.949274E-12	-1.3785136E+0	222.56817E-6	-234.76921E-15	0.0000000E+0	-16.776610E-9	156.26098E-3	55.840013E-12	-1.5886068E+0	116.53066E-6
201.72347E-12	-212.40781E-15	0.0000000E+0	-16.778856E-9	188.62055E-3	43.411746E-12	-1.2608743E+0	278.38541E-6	-238.23803E-15	0.0000000E+0	-16.778856E-9	3.9814913E+0	56.279766E-12	-1.3053896E+0	133.67341E-6
199.47899E-12	-254.71823E-15	0.0000000E+0	-16.781099E-9	-4.4699230E+0	50.966165E-12	-1.7579436E+0	210.00132E-6	-215.44382E-15	0.0000000E+0	-16.781099E-9	4.8030128E+0	54.209776E-12	-1.3704751E+0	180.89154E-6
197.23451E-12	-250.43539E-15	0.0000000E+0	-16.783344E-9	2.9578509E+0	55.192451E-12	-1.1358212E+0	150.53857E-6	-229.89577E-15	0.0000000E+0	-16.783344E-9	3.5220618E+0	49.395384E-12	-1.6051470E+0	235.43113E-6
194.99002E-12	-230.03707E-15	0.0000000E+0	-16.785588E-9	334.48526E-3	52.000019E-12	-1.2853149E+0	171.81272E-6	-247.04736E-15	0.0000000E+0	-16.785588E-9	4.5684390E+0	41.369023E-12	-1.5824952E+0	309.02651E-6
192.74554E-12	-234.86145E-15	0.0000000E+0	-16.787833E-9	-3.6554952E+0	46.365134E-12	-1.6823691E+0	234.25721E-6	-218.64906E-15	0.0000000E+0	-16.787833E-9	-1.0402673E+0	41.969293E-12	-2.1972177E+0	268.83296E-6
190.50100E-12	-235.45502E-15	0.0000000E+0	-16.790077E-9	-1.5617647E+0	44.682102E-12	-1.5737857E+0	270.21111E-6	-242.67657E-15	0.0000000E+0	-16.790077E-9	-4.3313394E+0	38.584275E-12	-2.3485310E+0	272.26750E-6
188.25652E-12	-245.90592E-15	0.0000000E+0	-16.792322E-9	-6.0880628E+0	47.020374E-12	-2.0423250E+0	261.64367E-6	-215.89355E-15	0.0000000E+0	-16.792322E-9	550.56494E-3	48.786055E-12	-1.8375090E+0	133.44741E-6
186.01204E-12	-247.24962E-15	0.0000000E+0	-16.794568E-9	-4.3356109E+0	41.575070E-12	-2.0288353E+0	341.50440E-6	-245.80140E-15	0.0000000E+0	-16.794568E-9	-1.5061476E+0	49.161192E-12	-2.0041046E+0	131.11031E-6
183.76756E-12	-227.13899E-15	0.0000000E+0	-16.796811E-9	-2.3359230E+0	46.463323E-12	-1.9619712E+0	310.65635E-6	-244.30244E-15	0.0000000E+0	-16.796811E-9	173.71525E-3	52.390491E-12	-1.8509502E+0	95.345662E-6
181.52307E-12	-232.03526E-15	0.0000000E+0	-16.799056E-9	-4.6566863E+0	52.802668E-12	-2.2610576E+0	244.02278E-6	-224.12667E-15	0.0000000E+0	-16.799056E-9	434.50990E-3	57.512602E-12	-1.8279405E+0	62.448358E-6
179.27859E-12	-234.88768E-15	0.0000000E+0	-16.801300E-9	186.96669E-3	52.244032E-12	-1.9122934E+0	239.02192E-6	-235.04506E-15	0.0000000E+0	-16.801300E-9	-339.78739E-3	56.131200E-12	-1.9160663E+0	105.03474E-6
177.03411E-12	-230.35057E-15	0.0000000E+0	-16.803545E-9	594.55985E-3	57.286002E-12	-1.8482226E+0	168.29393E-6	-234.52678E-15	0.0000000E+0	-16.803545E-9	5.9246769E+0	53.162696E-12	-1.4271654E+0	160.06011E-6
174.78963E-12	-235.72198E-15	0.0000000E+0	-16.805789E-9	493.93517E-3	59.853095E-12	-1.8867809E+0	106.84483E-6	-233.77033E-15	0.0000000E+0	-16.805789E-9	-1.3531491E+0	57.945346E-12	-2.0716298E+0	114.53148E-6
172.54509E-12	-238.49697E-15	0.0000000E+0	-16.808034E-9	834.08439E-3	54.885353E-12	-1.8181034E+0	129.74403E-6	-240.76211E-15	0.0000000E+0	-16.808034E-9	980.81708E-3	55.796024E-12	-1.9409394E+0	169.79921E-6
170.30061E-12	-229.78323E-15	0.0000000E+0	-16.810278E-9	-1.4459939E+0	48.948862E-12	-2.0303302E+0	192.15046E-6	-251.09794E-15	0.0000000E+0	-16.810278E-9	93.168341E-3	51.465339E-12	-2.0016911E+0	231.03152E-6
168.05612E-12	-225.59347E-15	0.0000000E+0	-16.812523E-9	2.8887744E+0	49.964460E-12	-1.6609452E+0	187.77771E-6	-225.63747E-15	0.0000000E+0	-16.812523E-9	151.80208E-3	45.990239E-12	-1.9745345E+0	287.24546E-6
165.81164E-12	-251.20243E-15	0.0000000E+0	-16.814766E-9	1.9776770E+0	51.778835E-12	-1.7011460E+0	161.64189E-6	-236.06933E-15	0.0000000E+0	-16.814766E-9	6.6226506E+0	45.777111E-12	-1.5049161E+0	270.17266E-6
163.56716E-12	-234.59956E-15	0.0000000E+0	-16.817012E-9	-3.9582272E+0	50.872973E-12	-2.1601515E+0	167.48367E-6	-231.86604E-15	0.0000000E+0	-16.817012E-9	544.52848E-3	51.725211E-12	-2.0745871E+0	201.24106E-6
161.32268E-12	-225.48432E-15	0.0000000E+0	-16.819255E-9	-3.0930915E+0	42.757721E-12	-2.2429829E+0	268.10865E-6	-234.58687E-15	0.0000000E+0	-16.819255E-9	3.6357455E+0	58.427971E-12	-1.8810230E+0	151.18586E-6
159.07820E-12	-257.51309E-15	0.0000000E+0	-16.821501E-9	-5.1844525E+0	48.018742E-12	-2.5783153E+0	232.54962E-6	-220.81142E-15	0.0000000E+0	-16.821501E-9	3.2013094E+0	46.980021E-12	-2.0380988E+0	285.00357E-6
156.83371E-12	-243.48083E-15	0.0000000E+0	-16.823744E-9	645.95062E-3	53.013875E-12	-2.1332462E+0	170.14222E-6	-254.53375E-15	0.0000000E+0	-16.823744E-9	-2.8108110E+0	43.491596E-12	-2.5096941E+0	302.83967E-6
154.58923E-12	-222.05738E-15	0.0000000E+0	-16.825989E-9	61.943583E-3	51.789094E-12	-2.1844320E+0	177.62391E-6	-237.25691E-15	0.0000000E+0	-16.825989E-9	631.29997E-3	48.365537E-12	-2.2223973E+0	237.35523E-6
152.34469E-12	-240.45918E-15	0.0000000E+0	-16.828235E-9	633.75115E-3	50.972636E-12	-2.1083946E+0	179.47375E-6	-239.93161E-15	0.0000000E+0	-16.828235E-9	-5.4308305E+0	45.590028E-12	-2.6283364E+0	257.74908E-6
150.10021E-12	-245.47904E-15	0.0000000E+0	-16.830478E-9	4.2657537E+0	49.761733E-12	-1.7286663E+0	191.38760E-6	-229.22983E-15	0.0000000E+0	-16.830478E-9	1.2203631E+0	51.366265E-12	-1.9859982E+0	182.72264E-6
147.85573E-12	-248.32507E-15	0.0000000E+0	-16.832724E-9	1.5316824E+0	51.740313E-12	-1.8931347E+0	171.27256E-6	-226.51283E-15	0.0000000E+0	-16.832724E-9	1.3756500E+0	58.742615E-12	-2.0348175E+0	126.16687E-6
145.61125E-12	-235.14109E-15	0.0000000E+0	-16.834967E-9	555.49073E-3	49.707582E-12	-1.9728199E+0	187.35115E-6	-245.35465E-15	0.0000000E+0	-16.834967E-9	3.9878812E+0	50.112334E-12	-1.8788705E+0	245.80301E-6
143.36676E-12	-231.59442E-15	0.0000000E+0	-16.837213E-9	-2.1619003E+0	46.769314E-12	-2.2157948E+0	229.29940E-6	-219.78629E-15	0.0000000E+0	-16.837213E-9	1.8556319E+0	47.832474E-12	-2.1588991E+0	265.73066E-6
141.12228E-12	-240.46680E-15	0.0000000E+0	-16.839456E-9	-804.45075E-3	46.800234E-12	-2.1394904E+0	240.69968E-6	-224.01963E-15	0.0000000E+0	-16.839456E-9	-1.1842777E+0	41.002205E-12	-2.4222498E+0	321.91889E-6
138.87780E-12	-239.71753E-15	0.0000000E+0	-16.841701E-9	-2.2848706E+0	49.896660E-12	-2.3093669E+0	212.52992E-6	-223.85547E-15	0.0000000E+0	-16.841701E-9	4.1558638E+0	42.029536E-12	-1.9976058E+0	270.13515E-6
136.63332E-12	-216.19943E-15	0.0000000E+0	-16.843945E-9	807.52289E-3	49.047797E-12	-2.0997510E+0	225.26670E-6	-229.17145E-15	0.0000000E+0	-16.843945E-9	1.0575436E+0	57.670646E-12	-2.2977695E+0	104.30443E-6
134.38878E-12	-233.32820E-15	0.0000000E+0	-16.846190E-9	6.2559729E+0	54.146947E-12	-1.5082537E+0	164.64965E-6	-211.74822E-15	0.0000000E+0	-16.846190E-9	475.86727E-3	60.328152E-12	-2.3759115E+0	104.62254E-6
132.14430E-12	-237.68550E-15	0.0000000E+0	-16.848434E-9	959.70440E-3	53.783759E-12	-1.8182243E+0	148.25788E-6	-221.94442E-15	0.0000000E+0	-16.848434E-9	-4.2684522E+0	49.642894E-12	-2.7192614E+0	245.28001E-6
129.89981E-12	-234.52128E-15	0.0000000E+0	-16.850679E-9	-2.7971175E+0	51.430221E-12	-2.2063859E+0	170.27700E-6	-245.91776E-15	0.0000000E+0	-16.850679E-9	1.5471846E+0	44.970253E-12	-2.2046645E+0	278.38268E-6
127.65533E-12	-243.71098E-15	0.0000000E+0	-16.852923E-9	-2.6604517E+0	53.483339E-12	-2.2826650E+0	132.55028E-6	-236.39128E-15	0.0000000E+0	-16.852923E-9	-1.5653865E+0	47.382015E-12	-2.4799609E+0	237.95913E-6
125.41085E-12	-237.43588E-15	0.0000000E+0	-16.855168E-9	-636.93708E-3	43.869873E-12	-2.1190531E+0	244.27997E-6	-229.08642E-15	0.0000000E+0	-16.855168E-9	-1.2770818E+0	47.546325E-12	-2.4374425E+0	225.55490E-6
123.16637E-12	-229.37284E-15	0.0000000E+0	-16.857411E-9	1.1110545E+0	42.104695E-12	-1.9816922E+0	290.06056E-6	-244.16791E-15	0.0000000E+0	-16.857411E-9	2.0265787E+0	46.290381E-12	-2.1739507E+0	231.59751E-6
120.92188E-12	-252.73525E-15	0.0000000E+0	-16.859657E-9	-5.1885676E+0	45.446303E-12	-2.5884733E+0	280.85132E-6	-227.91323E-15	0.0000000E+0	-16.859657E-9	7.7628751E+0	51.965061E-12	-1.8279634E+0	157.22594E-6
118.67740E-12	-245.76080E-15	0.0000000E+0	-16.861902E-9	-2.7928121E+0	44.875229E-12	-2.5113235E+0	302.95408E-6	-231.81698E-15	0.0000000E+0	-16.861902E-9	-846.54349E-3	50.516202E-12	-2.6567914E+0	184.61427E-6
116.43292E-12	-250.31100E-15	0.0000000E+0	-16.864146E-9	2.3927879E+0	57.539175E-12	-2.0564260E+0	160.52359E-6	-235.46136E-15	0.0000000E+0	-16.864146E-9	-807.95473E-3	40.582291E-12	-2.6214247E+0	270.39277E-6
114.18838E-12	-240.58359E-15	0.0000000E+0	-16.866391E-9	2.1234541E+0	58.351698E-12	-1.9746928E+0	119.47656E-6	-218.84325E-15	0.0000000E+0	-16.866391E-9	1.0614696E+0	49.404151E-12	-2.4576831E+0	154.31923E-6
111.94390E-12	-234.19550E-15	0.0000000E+0	-16.868634E-9	-621.65654E-3	61.500235E-12	-2.1874096E+0	58.628946E-6	-233.89767E-15	0.0000000E+0	-16.868634E-9	99.349201E-3	46.948556E-12	-2.5804412E+0	176.03181E-6
109.69942E-12	-253.71467E-15	0.0000000E+0	-16.870880E-9	-953.60148E-3	56.837288E-12	-2.2515297E+0	66.030268E-6	-234.24080E-15	0.0000000E+0	-16.870880E-9	6.0101824E+0	53.250813E-12	-2.1579320E+0	105.26081E-6
107.45493E-12	-237.05511E-15	0.0000000E+0	-16.873123E-9	1.8782973E+0	49.240580E-12	-1.9928027E+0	144.34129E-6	-239.41927E-15	0.0000000E+0	-16.873123E-9	-1.1106272E+0	55.110388E-12	-2.8262107E+0	103.44358E-6
105.21045E-12	-229.28187E-15	0.0000000E+0	-16.875369E-9	1.3755124E+0	51.971639E-12	-1.9945387E+0	111.18479E-6	-222.42715E-15	0.0000000E+0	-16.875369E-9	-2.3358800E+0	51.111438E-12	-2.8586514E+0	157.16779E-6
102.96597E-12	-216.00312E-15	0.0000000E+0	-16.877612E-9	-1.8923427E+0	46.382613E-12	-2.2800586E+0	177.13483E-6	-222.76563E-15	0.0000000E+0	-16.877612E-9	-1.4842366E+0	54.411978E-12	-2.7171822E+0	129.23904E-6
100.72149E-12	-240.90132E-15	0.0000000E+0	-16.879858E-9	-4.8577423E+0	43.481770E-12	-2.6152172E+0	228.11745E-6	-222.01465E-15	0.0000000E+0	-16.879858E-9	3.1671624E+0	46.767815E-12	-2.3231304E+0	216.13743E-6
98.477004E-12	-259.07255E-15	0.0000000E+0	-16.882101E-9	-8.3933964E+0	49.655783E-12	-3.0935335E+0	175.26701E-6	-240.88609E-15	0.0000000E+0	-16.882101E-9	1.6761186E+0	45.963788E-12	-2.4941328E+0	211.54222E-6
96.232466E-12	-239.79327E-15	0.0000000E+0	-16.884346E-9	-1.5801934E+0	56.864118E-12	-2.6340218E+0	85.948093E-6	-211.87726E-15	0.0000000E+0	-16.884346E-9	7.1689234E+0	50.403143E-12	-2.2294476E+0	154.05293E-6
93.987984E-12	-238.99535E-15	0.0000000E+0	-16.886590E-9	-157.40718E-3	57.697101E-12	-2.5203207E+0	44.063454E-6	-234.83225E-15	0.0000000E+0	-16.886590E-9	-4.9293036E+0	50.231895E-12	-3.3233399E+0	155.45610E-6
91.743502E-12	-227.94622E-15	0.0000000E+0	-16.888835E-9	4.4840231E+0	53.880182E-12	-2.0635390E+0	61.500854E-6	-239.85336E-15	0.0000000E+0	-16.888835E-9	-3.3232515E+0	47.408494E-12	-3.0377474E+0	180.67029E-6
89.499019E-12	-237.84921E-15	0.0000000E+0	-16.891081E-9	-805.04882E-3	45.768733E-12	-2.4684787E+0	149.16617E-6	-224.41773E-15	0.0000000E+0	-16.891081E-9	1.8567678E+0	54.963388E-12	-2.5818632E+0	103.18073E-6
87.254537E-12	-235.20498E-15	0.0000000E+0	-16.893324E-9	-2.2018657E+0	38.809053E-12	-2.6631765E+0	254.37342E-6	-239.02283E-15	0.0000000E+0	-16.893324E-9	-753.54081E-3	52.603668E-12	-2.8365574E+0	143.91320E-6
85.010055E-12	-226.49082E-15	0.0000000E+0	-16.895569E-9	-4.8465776E+0	43.811097E-12	-2.9537652E+0	237.65494E-6	-224.58654E-15	0.0000000E+0	-16.895569E-9	1.3290222E+0	45.878405E-12	-2.6543701E+0	216.36850E-6
82.765572E-12	-229.13550E-15	0.0000000E+0	-16.897813E-9	2.0144162E+0	45.016064E-12	-2.3967416E+0	243.68049E-6	-242.45739E-15	0.0000000E+0	-16.897813E-9	3.3939993E+0	53.458370E-12	-2.5670140E+0	129.15411E-6
80.521090E-12	-234.70492E-15	0.0000000E+0	-16.900058E-9	465.41157E-3	47.037776E-12	-2.4967887E+0	236.49989E-6	-244.71961E-15	0.0000000E+0	-16.900058E-9	-488.18782E-3	56.402129E-12	-2.8928828E+0	115.10957E-6
78.276607E-12	-225.33371E-15	0.0000000E+0	-16.902302E-9	-143.65092E-3	52.591934E-12	-2.5437849E+0	178.46603E-6	-237.87417E-15	0.0000000E+0	-16.902302E-9	1.8529308E+0	58.962467E-12	-2.7017667E+0	116.31595E-6
76.032070E-12	-223.95489E-15	0.0000000E+0	-16.904547E-9	-4.6611452E+0	48.938974E-12	-2.9835339E+0	209.74356E-6	-231.28260E-15	0.0000000E+0	-16.904547E-9	1.8166258E+0	48.558980E-12	-2.7775528E+0	247.56981E-6
73.787587E-12	-233.53045E-15	0.0000000E+0	-16.906791E-9	-3.1344914E+0	51.834221E-12	-2.9966230E+0	182.30207E-6	-230.20588E-15	0.0000000E+0	-16.906791E-9	-1.5422596E+0	50.337286E-12	-3.0741487E+0	224.80784E-6
71.543105E-12	-227.23291E-15	0.0000000E+0	-16.909036E-9	3.6451688E+0	53.278968E-12	-2.4061730E+0	158.00314E-6	-235.15337E-15	0.0000000E+0	-16.909036E-9	-5.1138206E+0	44.412914E-12	-3.2633421E+0	283.42451E-6
69.298622E-12	-229.31911E-15	0.0000000E+0	-16.911279E-9	-876.54954E-3	51.866008E-12	-2.7480252E+0	166.93116E-6	-229.92835E-15	0.0000000E+0	-16.911279E-9	4.4297409E+0	46.209644E-12	-2.4298306E+0	246.94490E-6
67.054140E-12	-236.26354E-15	0.0000000E+0	-16.913525E-9	364.98800E-3	52.825761E-12	-2.6523266E+0	147.05650E-6	-226.75568E-15	0.0000000E+0	-16.913525E-9	2.2866123E+0	55.162062E-12	-2.7485762E+0	149.02851E-6
64.809658E-12	-237.30516E-15	0.0000000E+0	-16.915768E-9	3.8048732E+0	52.787264E-12	-2.2748823E+0	138.48348E-6	-232.53662E-15	0.0000000E+0	-16.915768E-9	3.0334947E+0	47.877122E-12	-2.6668553E+0	236.08963E-6
62.565175E-12	-233.95901E-15	0.0000000E+0	-16.918014E-9	-7.2874355E+0	49.440303E-12	-3.2911813E+0	168.19205E-6	-235.59125E-15	0.0000000E+0	-16.918014E-9	1.0020200E+0	44.756910E-12	-3.0237107E+0	254.88518E-6
60.320693E-12	-219.69618E-15	0.0000000E+0	-16.920257E-9	-2.5513575E+0	48.604298E-12	-3.0431876E+0	181.54335E-6	-233.72930E-15	0.0000000E+0	-16.920257E-9	-1.2907552E+0	47.010465E-12	-3.2312148E+0	217.80218E-6
58.076155E-12	-235.54978E-15	0.0000000E+0	-16.922503E-9	250.57244E-3	54.413064E-12	-2.8046396E+0	114.98248E-6	-227.25702E-15	0.0000000E+0	-16.922503E-9	-3.7770572E+0	46.234874E-12	-3.3095903E+0	212.06743E-6
55.831673E-12	-257.21566E-15	0.0000000E+0	-16.924748E-9	717.03631E-3	51.125590E-12	-2.7530773E+0	140.83004E-6	-230.93612E-15	0.0000000E+0	-16.924748E-9	2.3398914E+0	54.929152E-12	-2.7649786E+0	119.38164E-6
53.587190E-12	-226.08722E-15	0.0000000E+0	-16.926991E-9	-171.97220E-3	44.781272E-12	-2.8429887E+0	220.52777E-6	-230.66745E-15	0.0000000E+0	-16.926991E-9	2.8338284E+0	50.864438E-12	-2.7939909E+0	175.16504E-6
51.342708E-12	-248.26373E-15	0.0000000E+0	-16.929237E-9	2.1822202E+0	55.540832E-12	-2.6423068E+0	99.059987E-6	-240.16219E-15	0.0000000E+0	-16.929237E-9	6.4198589E+0	53.319984E-12	-2.6234329E+0	151.73809E-6
49.098225E-12	-265.15050E-15	0.0000000E+0	-16.931480E-9	675.97651E-3	52.509084E-12	-2.7049785E+0	122.72988E-6	-242.67147E-15	0.0000000E+0	-16.931480E-9	1.7491243E+0	48.734562E-12	-3.0889871E+0	211.43364E-6
46.853743E-12	-232.11565E-15	0.0000000E+0	-16.933726E-9	2.3765864E+0	46.667604E-12	-2.5097356E+0	180.70775E-6	-243.21048E-15	0.0000000E+0	-16.933726E-9	1.3723007E+0	47.463027E-12	-3.1939788E+0	217.95309E-6
44.609261E-12	-241.55794E-15	0.0000000E+0	-16.935969E-9	-2.6347919E+0	44.793589E-12	-2.9412484E+0	218.25120E-6	-242.48829E-15	0.0000000E+0	-16.935969E-9	2.2765958E+0	47.570361E-12	-3.1292980E+0	204.42429E-6
42.364778E-12	-242.53440E-15	0.0000000E+0	-16.938214E-9	-6.1895385E+0	52.034384E-12	-3.4062893E+0	147.48413E-6	-244.96328E-15	0.0000000E+0	-16.938214E-9	2.7705266E+0	48.211192E-12	-3.1890922E+0	196.60580E-6
40.120296E-12	-246.27061E-15	0.0000000E+0	-16.940458E-9	3.8738785E+0	52.376384E-12	-2.5426934E+0	141.37865E-6	-259.48040E-15	0.0000000E+0	-16.940458E-9	477.18933E-3	55.080239E-12	-3.4492841E+0	121.68462E-6
37.875758E-12	-249.45765E-15	0.0000000E+0	-16.942703E-9	-5.0583992E+0	48.549467E-12	-3.3719976E+0	172.83799E-6	-233.30028E-15	0.0000000E+0	-16.942703E-9	-3.3134804E+0	52.634359E-12	-3.7422521E+0	165.11176E-6
35.631276E-12	-244.08625E-15	0.0000000E+0	-16.944947E-9	-4.7392201E+0	53.833257E-12	-3.4299526E+0	118.44261E-6	-228.07738E-15	0.0000000E+0	-16.944947E-9	604.50566E-3	48.507795E-12	-3.3851874E+0	212.89228E-6
33.386793E-12	-238.83161E-15	0.0000000E+0	-16.947192E-9	-10.060038E+0	48.196062E-12	-4.1493368E+0	177.94865E-6	-249.61080E-15	0.0000000E+0	-16.947192E-9	-5.9033389E+0	50.984002E-12	-3.8540218E+0	185.37951E-6
31.142311E-12	-245.75234E-15	0.0000000E+0	-16.949436E-9	2.3068128E+0	55.377862E-12	-3.1936536E+0	89.579196E-6	-232.37543E-15	0.0000000E+0	-16.949436E-9	-660.07894E-3	52.171722E-12	-3.3152478E+0	173.79572E-6
28.897829E-12	-241.80671E-15	0.0000000E+0	-16.951681E-9	4.9496527E+0	45.507383E-12	-2.7985637E+0	190.68623E-6	-242.31355E-15	0.0000000E+0	-16.951681E-9	2.9600036E+0	51.862792E-12	-2.9958248E+0	186.74630E-6
26.653346E-12	-230.74151E-15	0.0000000E+0	-16.953924E-9	-1.9779403E+0	47.515058E-12	-3.4150739E+0	182.78429E-6	-218.87117E-15	0.0000000E+0	-16.953924E-9	-520.25032E-3	46.249986E-12	-3.3650510E+0	249.86523E-6
24.408864E-12	-252.65274E-15	0.0000000E+0	-16.956170E-9	-3.3134902E+0	50.988429E-12	-3.6121283E+0	156.41135E-6	-255.36469E-15	0.0000000E+0	-16.956170E-9	3.3210080E+0	44.370146E-12	-3.0675297E+0	251.25098E-6
22.164381E-12	-251.37631E-15	0.0000000E+0	-16.958415E-9	-2.4037344E+0	51.793000E-12	-3.6262727E+0	135.36190E-6	-231.73488E-15	0.0000000E+0	-16.958415E-9	3.9378734E+0	52.622046E-12	-3.1402686E+0	147.59670E-6
19.919844E-12	-250.85085E-15	0.0000000E+0	-16.960659E-9	-2.3423412E+0	54.906843E-12	-3.6938143E+0	85.886408E-6	-251.66739E-15	0.0000000E+0	-16.960659E-9	428.78661E-3	57.358111E-12	-3.5020771E+0	118.67843E-6
17.675361E-12	-255.53222E-15	0.0000000E+0	-16.962904E-9	3.9244373E+0	49.455901E-12	-3.1073203E+0	131.82047E-6	-237.02381E-15	0.0000000E+0	-16.962904E-9	1.5847691E+0	53.234712E-12	-3.4451234E+0	181.06854E-6
15.430879E-12	-252.71029E-15	0.0000000E+0	-16.965148E-9	-661.93271E-3	42.789397E-12	-3.4425571E+0	221.49151E-6	-247.11889E-15	0.0000000E+0	-16.965148E-9	-221.49818E-3	51.256312E-12	-3.6291435E+0	215.57258E-6
13.186396E-12	-234.84789E-15	0.0000000E+0	-16.967393E-9	-925.31973E-3	46.490763E-12	-3.4897959E+0	199.00882E-6	-229.39525E-15	0.0000000E+0	-16.967393E-9	-3.0477421E+0	50.135250E-12	-3.8334138E+0	227.81601E-6
10.941914E-12	-241.17633E-15	0.0000000E+0	-16.969636E-9	-4.0780368E+0	46.971534E-12	-3.8798337E+0	206.68302E-6	-242.71421E-15	0.0000000E+0	-16.969636E-9	-238.07301E-3	49.837395E-12	-3.5439179E+0	228.03369E-6
8.6974317E-12	-245.01364E-15	0.0000000E+0	-16.971882E-9	501.31553E-3	47.439171E-12	-3.5042710E+0	212.41304E-6	-244.88758E-15	0.0000000E+0	-16.971882E-9	4.0558271E+0	54.920374E-12	-3.2101572E+0	181.51001E-6
6.4529493E-12	-233.13231E-15	0.0000000E+0	-16.974125E-9	1.5532801E+0	47.707612E-12	-3.3885543E+0	213.95534E-6	-249.71575E-15	0.0000000E+0	-16.974125E-9	2.0178876E+0	47.692388E-12	-3.5078435E+0	261.91241E-6
4.2084669E-12	-255.86941E-15	0.0000000E+0	-16.976371E-9	219.99049E-3	52.199405E-12	-3.4204774E+0	169.93593E-6	-232.02555E-15	0.0000000E+0	-16.976371E-9	2.2950876E+0	50.778336E-12	-3.5244050E+0	225.91998E-6
1.9639845E-12	-217.19283E-15	0.0000000E+0	-16.978614E-9	2.3170733E+0	51.086389E-12	-3.2405088E+0	168.94744E-6	-219.73299E-15	0.0000000E+0	-16.978614E-9	5.2140555E+0	50.419509E-12	-3.3989272E+0	230.77975E-6
-280.55336E-15	-233.77201E-15	0.0000000E+0	-16.980859E-9	-1.4709392E+0	50.778472E-12	-3.5344486E+0	176.42741E-6	-241.20509E-15	0.0000000E+0	-16.980859E-9	4.6813331E+0	50.269032E-12	-3.5669017E+0	230.33816E-6
-2.5250357E-12	-245.98417E-15	0.0000000E+0	-16.983103E-9	-4.7966919E+0	50.403161E-12	-3.8912857E+0	172.93007E-6	-232.19098E-15	0.0000000E+0	-16.983103E-9	1.4163493E+0	49.359562E-12	-3.9572141E+0	244.71409E-6
-4.7695181E-12	-235.90645E-15	0.0000000E+0	-16.985348E-9	-5.6082325E+0	48.779585E-12	-4.1558714E+0	192.92466E-6	-240.09958E-15	0.0000000E+0	-16.985348E-9	3.5366545E+0	47.401527E-12	-3.8171661E+0	258.87508E-6
-7.0140005E-12	-238.51556E-15	0.0000000E+0	-16.987594E-9	-3.3881381E+0	44.732936E-12	-4.0758076E+0	245.04276E-6	-252.19033E-15	0.0000000E+0	-16.987594E-9	892.75938E-3	50.516504E-12	-4.1206346E+0	228.10113E-6
-9.2584829E-12	-232.00989E-15	0.0000000E+0	-16.989837E-9	-4.3014188E+0	47.947507E-12	-4.2505617E+0	230.15832E-6	-247.82457E-15	0.0000000E+0	-16.989837E-9	3.5989428E+0	51.694100E-12	-3.9717531E+0	213.23582E-6
-11.502965E-12	-234.42609E-15	0.0000000E+0	-16.992082E-9	611.34297E-3	47.065556E-12	-3.9399848E+0	246.81160E-6	-238.28585E-15	0.0000000E+0	-16.992082E-9	-2.6045873E+0	49.923836E-12	-4.5298018E+0	241.97482E-6
-13.747448E-12	-242.53101E-15	0.0000000E+0	-16.994326E-9	-824.65082E-3	51.373059E-12	-4.0072465E+0	196.96314E-6	-226.01655E-15	0.0000000E+0	-16.994326E-9	1.5590924E+0	50.312535E-12	-4.1106095E+0	235.74136E-6
-15.991930E-12	-244.75937E-15	0.0000000E+0	-16.996571E-9	2.4923463E+0	56.282541E-12	-3.7404728E+0	129.53105E-6	-233.38617E-15	0.0000000E+0	-16.996571E-9	-675.58181E-3	48.114880E-12	-4.3120632E+0	257.34110E-6
-18.236468E-12	-256.97535E-15	0.0000000E+0	-16.998815E-9	4.6695414E+0	50.561989E-12	-3.4339166E+0	177.72125E-6	-248.14019E-15	0.0000000E+0	-16.998815E-9	-1.3812040E+0	45.751784E-12	-4.2982950E+0	275.93184E-6
-20.480950E-12	-244.42896E-15	0.0000000E+0	-17.001060E-9	3.1604371E+0	47.658332E-12	-3.4083641E+0	214.06577E-6	-238.16864E-15	0.0000000E+0	-17.001060E-9	773.69410E-3	45.987558E-12	-4.1124430E+0	256.49983E-6
-22.725433E-12	-242.99090E-15	0.0000000E+0	-17.003304E-9	-3.0421259E+0	52.510982E-12	-4.0371904E+0	154.69585E-6	-248.69359E-15	0.0000000E+0	-17.003304E-9	-213.26211E-3	48.103414E-12	-4.2579608E+0	222.13734E-6
-24.969915E-12	-235.18890E-15	0.0000000E+0	-17.005549E-9	-4.9401236E+0	51.214064E-12	-4.2686920E+0	163.74854E-6	-252.52624E-15	0.0000000E+0	-17.005549E-9	556.80758E-3	44.250530E-12	-4.1525755E+0	250.09317E-6
-27.214397E-12	-240.53578E-15	0.0000000E+0	-17.007793E-9	-1.4298207E+0	51.495152E-12	-4.0794477E+0	151.21850E-6	-234.16295E-15	0.0000000E+0	-17.007793E-9	-1.9796288E+0	49.218369E-12	-4.3913345E+0	180.31601E-6
-29.458880E-12	-244.19456E-15	0.0000000E+0	-17.010038E-9	-1.9322220E+0	49.074751E-12	-4.2160578E+0	179.04278E-6	-244.72340E-15	0.0000000E+0	-17.010038E-9	758.29971E-3	49.245462E-12	-4.1380625E+0	178.33219E-6
-31.703362E-12	-222.22408E-15	0.0000000E+0	-17.012281E-9	-4.1354117E+0	46.474678E-12	-4.4485798E+0	214.45152E-6	-233.53043E-15	0.0000000E+0	-17.012281E-9	5.2193303E+0	51.778713E-12	-3.8820291E+0	152.66400E-6
-33.947845E-12	-231.70273E-15	0.0000000E+0	-17.014527E-9	-1.3616266E+0	49.615260E-12	-4.3309603E+0	189.28204E-6	-234.31355E-15	0.0000000E+0	-17.014527E-9	1.6528615E+0	57.008748E-12	-4.2804661E+0	112.81755E-6
-36.192327E-12	-238.75503E-15	0.0000000E+0	-17.016770E-9	-3.6968439E+0	45.419158E-12	-4.5152454E+0	240.79457E-6	-247.46793E-15	0.0000000E+0	-17.016770E-9	4.5472093E+0	50.399657E-12	-4.1416411E+0	195.48667E-6
-38.436865E-12	-230.52233E-15	0.0000000E+0	-17.019016E-9	-2.5559895E+0	46.702760E-12	-4.5719109E+0	238.69074E-6	-229.77985E-15	0.0000000E+0	-17.019016E-9	-2.4516268E+0	54.762941E-12	-4.7072034E+0	160.82902E-6
-40.681347E-12	-223.69427E-15	0.0000000E+0	-17.021261E-9	-240.59600E-3	47.557430E-12	-4.3786039E+0	245.18429E-6	-238.68480E-15	0.0000000E+0	-17.021261E-9	3.0080843E+0	49.776936E-12	-4.2964153E+0	221.29051E-6
-42.925830E-12	-243.30695E-15	0.0000000E+0	-17.023504E-9	-2.9248927E+0	51.541108E-12	-4.6635976E+0	197.51415E-6	-259.20160E-15	0.0000000E+0	-17.023504E-9	1.8710353E+0	49.568467E-12	-4.4493341E+0	224.91062E-6
-45.170312E-12	-227.37252E-15	0.0000000E+0	-17.025750E-9	-2.8782339E+0	49.571253E-12	-4.7983923E+0	224.37447E-6	-235.64795E-15	0.0000000E+0	-17.025750E-9	2.2832589E+0	46.061984E-12	-4.4785709E+0	253.30595E-6
-47.414794E-12	-250.11005E-15	0.0000000E+0	-17.027993E-9	4.0866575E+0	51.476073E-12	-4.1709175E+0	200.86417E-6	-223.96039E-15	0.0000000E+0	-17.027993E-9	2.5621433E+0	47.381848E-12	-4.5236325E+0	222.34822E-6
-49.659277E-12	-250.74932E-15	0.0000000E+0	-17.030239E-9	-3.1901801E+0	47.942993E-12	-4.7669940E+0	241.19172E-6	-211.78798E-15	0.0000000E+0	-17.030239E-9	6.6262479E+0	55.998029E-12	-4.3079882E+0	137.15459E-6
-51.903759E-12	-226.32033E-15	0.0000000E+0	-17.032482E-9	2.4659007E+0	54.167733E-12	-4.2966738E+0	168.76216E-6	-223.25003E-15	0.0000000E+0	-17.032482E-9	-5.2906280E+0	52.813618E-12	-5.3398437E+0	191.10140E-6
-54.148241E-12	-230.27571E-15	0.0000000E+0	-17.034727E-9	1.2605281E+0	51.431095E-12	-4.3128195E+0	190.33698E-6	-261.84710E-15	0.0000000E+0	-17.034727E-9	2.6846449E+0	50.279406E-12	-4.6520157E+0	226.01720E-6
-56.392724E-12	-225.00286E-15	0.0000000E+0	-17.036971E-9	-707.88562E-3	54.955460E-12	-4.5332212E+0	137.84174E-6	-252.60791E-15	0.0000000E+0	-17.036971E-9	-1.8948277E+0	40.974588E-12	-4.9886470E+0	304.41006E-6
-58.637262E-12	-237.11984E-15	0.0000000E+0	-17.039216E-9	1.4030110E+0	53.465073E-12	-4.2742939E+0	136.86421E-6	-222.84304E-15	0.0000000E+0	-17.039216E-9	1.6636673E+0	51.550229E-12	-4.7071080E+0	178.79266E-6
-60.881744E-12	-256.74815E-15	0.0000000E+0	-17.041460E-9	-5.3467069E+0	47.882955E-12	-4.9102316E+0	193.73056E-6	-233.20170E-15	0.0000000E+0	-17.041460E-9	3.1624384E+0	48.212465E-12	-4.6340146E+0	215.83353E-6
-63.126226E-12	-217.04009E-15	0.0000000E+0	-17.043705E-9	4.7818208E+0	52.303172E-12	-4.0456514E+0	146.91569E-6	-237.79297E-15	0.0000000E+0	-17.043705E-9	1.9051191E+0	52.983843E-12	-4.8115020E+0	166.86367E-6
-65.370709E-12	-235.00909E-15	0.0000000E+0	-17.045949E-9	1.3810158E+0	54.784708E-12	-4.2353415E+0	110.71971E-6	-235.46307E-15	0.0000000E+0	-17.045949E-9	1.9477543E+0	48.352548E-12	-4.9115295E+0	221.60595E-6
-67.615191E-12	-239.27372E-15	0.0000000E+0	-17.048194E-9	-2.3551822E+0	55.556466E-12	-4.5657630E+0	78.332210E-6	-225.38067E-15	0.0000000E+0	-17.048194E-9	1.1924210E+0	49.349927E-12	-4.9886580E+0	207.60373E-6
-69.859674E-12	-249.72421E-15	0.0000000E+0	-17.050438E-9	-908.90425E-3	46.840785E-12	-4.5124049E+0	174.16557E-6	-229.48960E-15	0.0000000E+0	-17.050438E-9	-527.66037E-3	48.015193E-12	-5.1457224E+0	215.42085E-6
-72.104156E-12	-238.15807E-15	0.0000000E+0	-17.052683E-9	-2.4887729E+0	49.764942E-12	-4.6828060E+0	144.78684E-6	-231.43155E-15	0.0000000E+0	-17.052683E-9	4.3351789E+0	50.601617E-12	-4.8074169E+0	181.24585E-6
-74.348638E-12	-239.84997E-15	0.0000000E+0	-17.054928E-9	1.0158876E+0	46.468711E-12	-4.3732333E+0	191.18744E-6	-238.01929E-15	0.0000000E+0	-17.054928E-9	-632.54535E-3	56.404752E-12	-5.2750330E+0	136.08830E-6
-76.593176E-12	-255.99678E-15	0.0000000E+0	-17.057172E-9	-7.3550172E+0	46.607763E-12	-5.2236462E+0	199.07358E-6	-226.35882E-15	0.0000000E+0	-17.057172E-9	4.4392662E+0	47.375295E-12	-4.8682556E+0	240.62388E-6
-78.837659E-12	-250.65751E-15	0.0000000E+0	-17.059417E-9	-4.9061880E+0	52.937280E-12	-5.1739397E+0	129.42971E-6	-215.21324E-15	0.0000000E+0	-17.059417E-9	701.40713E-3	46.864665E-12	-5.3042655E+0	238.69230E-6
-81.082141E-12	-240.28023E-15	0.0000000E+0	-17.061661E-9	-3.4414203E+0	42.705447E-12	-5.2123346E+0	246.72179E-6	-226.27505E-15	0.0000000E+0	-17.061661E-9	4.4914861E+0	47.514982E-12	-5.0357533E+0	221.24907E-6
-83.326623E-12	-243.38436E-15	0.0000000E+0	-17.063906E-9	-1.2218300E+0	46.918625E-12	-5.0246105E+0	223.01913E-6	-237.23661E-15	0.0000000E+0	-17.063906E-9	3.3656523E+0	51.044374E-12	-5.2409739E+0	175.68374E-6
-85.571106E-12	-258.84492E-15	0.0000000E+0	-17.066149E-9	-1.3623520E+0	52.597541E-12	-5.0967860E+0	160.92272E-6	-223.34058E-15	0.0000000E+0	-17.066149E-9	4.7464728E+0	55.527118E-12	-5.2354245E+0	141.37891E-6
-87.815588E-12	-239.31901E-15	0.0000000E+0	-17.068395E-9	-19.739022E-3	47.410218E-12	-4.9613581E+0	216.92015E-6	-226.55895E-15	0.0000000E+0	-17.068395E-9	4.6921196E+0	51.492925E-12	-5.3890271E+0	197.09286E-6
-90.060071E-12	-224.09831E-15	0.0000000E+0	-17.070638E-9	-5.4389873E+0	47.879100E-12	-5.4923692E+0	226.54186E-6	-244.95567E-15	0.0000000E+0	-17.070638E-9	-3.5907767E+0	44.407047E-12	-6.1419811E+0	266.38081E-6
-92.304553E-12	-233.72293E-15	0.0000000E+0	-17.072884E-9	-7.3982077E+0	50.094050E-12	-5.8498688E+0	202.66471E-6	-218.91390E-15	0.0000000E+0	-17.072884E-9	2.3348680E+0	48.213548E-12	-5.5945826E+0	209.19017E-6
-94.549035E-12	-223.80555E-15	0.0000000E+0	-17.075127E-9	-976.85516E-3	54.272458E-12	-5.4204569E+0	149.87039E-6	-233.58163E-15	0.0000000E+0	-17.075127E-9	1.5908900E+0	60.056030E-12	-5.7419066E+0	101.05532E-6
-96.793573E-12	-239.55255E-15	0.0000000E+0	-17.077372E-9	-1.9121349E+0	50.088420E-12	-5.5716600E+0	189.74976E-6	-223.36259E-15	0.0000000E+0	-17.077372E-9	4.0685143E+0	49.638176E-12	-5.5838227E+0	238.13620E-6
-99.038056E-12	-258.09099E-15	0.0000000E+0	-17.079616E-9	2.3314378E+0	51.333614E-12	-5.1893873E+0	166.98494E-6	-247.20053E-15	0.0000000E+0	-17.079616E-9	3.5577888E+0	46.124257E-12	-5.7270041E+0	263.41295E-6
-101.28254E-12	-246.07177E-15	0.0000000E+0	-17.081861E-9	-1.7935338E+0	49.935424E-12	-5.5477242E+0	187.08657E-6	-259.35219E-15	0.0000000E+0	-17.081861E-9	2.7048788E+0	49.994283E-12	-5.9616008E+0	213.93475E-6
-103.52702E-12	-238.72034E-15	0.0000000E+0	-17.084107E-9	-5.6249104E+0	53.346768E-12	-6.0198927E+0	142.04714E-6	-236.60072E-15	0.0000000E+0	-17.084107E-9	-394.98320E-3	42.137297E-12	-6.2552929E+0	288.05222E-6
-105.77150E-12	-239.94261E-15	0.0000000E+0	-17.086350E-9	-4.2783327E+0	46.909900E-12	-6.0375609E+0	210.35856E-6	-224.24385E-15	0.0000000E+0	-17.086350E-9	-840.38913E-3	50.040257E-12	-6.2431345E+0	187.06049E-6
-108.01599E-12	-246.84093E-15	0.0000000E+0	-17.088595E-9	5.0727859E+0	47.435739E-12	-5.2132807E+0	215.44665E-6	-223.91470E-15	0.0000000E+0	-17.088595E-9	-290.21451E-3	48.671775E-12	-6.1679087E+0	198.80882E-6
-110.26047E-12	-217.25713E-15	0.0000000E+0	-17.090839E-9	5.4344091E+0	51.800626E-12	-5.0447459E+0	166.00933E-6	-236.54486E-15	0.0000000E+0	-17.090839E-9	4.0937629E+0	50.085602E-12	-5.8122063E+0	184.49662E-6
-112.50495E-12	-240.73462E-15	0.0000000E+0	-17.093084E-9	-6.2819533E+0	49.904421E-12	-6.0274258E+0	181.73349E-6	-236.30709E-15	0.0000000E+0	-17.093084E-9	8.4843311E+0	54.710344E-12	-5.6419740E+0	143.77323E-6
-114.74949E-12	-237.66308E-15	0.0000000E+0	-17.095328E-9	-3.8980250E+0	52.088615E-12	-6.0417347E+0	159.39496E-6	-229.23449E-15	0.0000000E+0	-17.095328E-9	2.7578459E+0	55.294026E-12	-6.3174639E+0	156.98266E-6
-116.99397E-12	-223.52927E-15	0.0000000E+0	-17.097573E-9	-3.1158559E+0	50.386230E-12	-6.0806417E+0	178.65110E-6	-223.74251E-15	0.0000000E+0	-17.097573E-9	5.0397034E+0	46.709907E-12	-6.2239351E+0	257.48153E-6
-119.23845E-12	-228.83849E-15	0.0000000E+0	-17.099817E-9	-3.6608603E+0	50.712132E-12	-6.2278476E+0	161.05067E-6	-246.86758E-15	0.0000000E+0	-17.099817E-9	1.8387449E+0	45.661593E-12	-6.6112633E+0	254.27720E-6
-121.48293E-12	-250.76287E-15	0.0000000E+0	-17.102062E-9	893.53937E-3	47.588475E-12	-5.9035802E+0	208.38200E-6	-219.76641E-15	0.0000000E+0	-17.102062E-9	-2.7022700E+0	47.824224E-12	-6.9800377E+0	219.17405E-6
-123.72742E-12	-225.79149E-15	0.0000000E+0	-17.104306E-9	1.1325395E+0	48.905040E-12	-5.8145890E+0	200.06322E-6	-245.26071E-15	0.0000000E+0	-17.104306E-9	4.4531121E+0	53.765933E-12	-6.3393307E+0	158.44591E-6
-125.97190E-12	-238.44365E-15	0.0000000E+0	-17.106551E-9	-180.90951E-3	51.039215E-12	-5.9188871E+0	172.49667E-6	-225.52493E-15	0.0000000E+0	-17.106551E-9	4.1619339E+0	56.548950E-12	-6.5517440E+0	142.68003E-6
-128.21638E-12	-243.02516E-15	0.0000000E+0	-17.108794E-9	-1.8251488E+0	46.523185E-12	-6.1244578E+0	231.41690E-6	-218.09822E-15	0.0000000E+0	-17.108794E-9	5.2574172E+0	56.034163E-12	-6.5607004E+0	172.53007E-6
-130.46086E-12	-225.29054E-15	0.0000000E+0	-17.111040E-9	-2.6023030E+0	51.969089E-12	-6.2870321E+0	173.00251E-6	-238.23421E-15	0.0000000E+0	-17.111040E-9	2.6910231E+0	57.053209E-12	-6.9124084E+0	191.46017E-6
-132.70535E-12	-203.38226E-15	0.0000000E+0	-17.113283E-9	387.68965E-3	50.027652E-12	-6.0476270E+0	189.02036E-6	-243.00063E-15	0.0000000E+0	-17.113283E-9	2.5228231E+0	49.888104E-12	-6.9627190E+0	277.08177E-6
-134.94988E-12	-237.61144E-15	0.0000000E+0	-17.115529E-9	-4.1970277E+0	48.452690E-12	-6.5426855E+0	208.25659E-6	-237.79972E-15	0.0000000E+0	-17.115529E-9	4.7801509E+0	46.127050E-12	-6.9058185E+0	308.17220E-6
-137.19437E-12	-230.42335E-15	0.0000000E+0	-17.117774E-9	-8.0838652E+0	46.279387E-12	-7.0269194E+0	240.07217E-6	-236.78856E-15	0.0000000E+0	-17.117774E-9	-2.0811124E+0	43.602153E-12	-7.5385127E+0	324.76839E-6
-139.43885E-12	-240.03358E-15	0.0000000E+0	-17.120017E-9	-4.6282172E+0	47.880869E-12	-6.8884497E+0	235.51029E-6	-247.72770E-15	0.0000000E+0	-17.120017E-9	3.7815287E+0	46.890890E-12	-7.0350075E+0	267.21743E-6
-141.68333E-12	-235.41821E-15	0.0000000E+0	-17.122263E-9	-3.1377118E+0	56.097012E-12	-6.8657990E+0	139.01967E-6	-239.04443E-15	0.0000000E+0	-17.122263E-9	3.2746122E+0	47.874243E-12	-7.2100124E+0	244.13870E-6
-143.92781E-12	-240.07505E-15	0.0000000E+0	-17.124506E-9	-4.5920362E+0	55.694605E-12	-7.1341510E+0	117.89171E-6	-234.03008E-15	0.0000000E+0	-17.124506E-9	3.1172664E+0	55.476030E-12	-7.2969675E+0	167.91953E-6
-146.17230E-12	-238.16696E-15	0.0000000E+0	-17.126752E-9	331.86287E-3	44.031993E-12	-6.7268953E+0	253.50426E-6	-232.69909E-15	0.0000000E+0	-17.126752E-9	-1.0902327E+0	50.929587E-12	-7.6849561E+0	236.37361E-6
-148.41678E-12	-248.82895E-15	0.0000000E+0	-17.128995E-9	928.36243E-3	53.186101E-12	-6.6392269E+0	157.83496E-6	-238.07684E-15	0.0000000E+0	-17.128995E-9	903.07802E-3	45.320189E-12	-7.5112629E+0	288.86713E-6
-150.66126E-12	-218.35122E-15	0.0000000E+0	-17.131240E-9	-4.9760056E+0	56.968211E-12	-7.1871743E+0	100.66756E-6	-229.81243E-15	0.0000000E+0	-17.131240E-9	1.4382865E+0	45.422249E-12	-7.5215292E+0	272.14401E-6
-152.90580E-12	-242.18155E-15	0.0000000E+0	-17.133484E-9	-6.4076853E+0	55.328978E-12	-7.4836607E+0	94.216506E-6	-230.09968E-15	0.0000000E+0	-17.133484E-9	3.8158686E+0	50.768979E-12	-7.3906021E+0	202.96211E-6
-155.15028E-12	-231.93798E-15	0.0000000E+0	-17.135729E-9	-1.4459509E+0	50.673635E-12	-7.1717710E+0	130.95517E-6	-244.17426E-15	0.0000000E+0	-17.135729E-9	4.4091568E+0	57.808223E-12	-7.4762349E+0	146.78332E-6
-157.39476E-12	-247.18614E-15	0.0000000E+0	-17.137973E-9	-8.8006382E+0	44.327441E-12	-7.9480567E+0	208.74105E-6	-236.59140E-15	0.0000000E+0	-17.137973E-9	5.7844815E+0	55.706235E-12	-7.5248790E+0	190.87762E-6
-159.63925E-12	-230.03157E-15	0.0000000E+0	-17.140218E-9	-3.3843849E+0	40.113732E-12	-7.6219268E+0	283.37032E-6	-237.49172E-15	0.0000000E+0	-17.140218E-9	5.8587823E+0	52.987368E-12	-7.6656523E+0	234.36827E-6
-161.88373E-12	-235.08059E-15	0.0000000E+0	-17.142462E-9	-3.8817482E+0	44.622354E-12	-7.8014345E+0	257.57108E-6	-240.14444E-15	0.0000000E+0	-17.142462E-9	2.7544968E+0	52.947979E-12	-8.1008320E+0	249.05297E-6
-164.12821E-12	-220.57491E-15	0.0000000E+0	-17.144707E-9	-3.1232634E+0	49.769001E-12	-7.8047194E+0	212.44219E-6	-237.05384E-15	0.0000000E+0	-17.144707E-9	6.6098909E+0	49.696084E-12	-7.8942013E+0	288.85220E-6
-166.37269E-12	-239.07826E-15	0.0000000E+0	-17.146951E-9	-2.2222681E+0	46.041872E-12	-7.8111014E+0	264.07660E-6	-241.41577E-15	0.0000000E+0	-17.146951E-9	2.3283587E+0	46.431810E-12	-8.3860664E+0	319.38936E-6
-168.61718E-12	-242.32032E-15	0.0000000E+0	-17.149196E-9	-2.2420418E+0	49.939906E-12	-7.8559451E+0	230.74236E-6	-231.06346E-15	0.0000000E+0	-17.149196E-9	-1.7886277E+0	47.076079E-12	-8.7039003E+0	300.50075E-6
-170.86166E-12	-220.48650E-15	0.0000000E+0	-17.151441E-9	-3.5149443E+0	53.223721E-12	-8.0784731E+0	185.35333E-6	-236.03970E-15	0.0000000E+0	-17.151441E-9	-24.068167E-3	46.605952E-12	-8.5543985E+0	294.26720E-6
-173.10620E-12	-203.82522E-15	0.0000000E+0	-17.153685E-9	-5.7156014E+0	48.240252E-12	-8.3956242E+0	233.03319E-6	-227.05606E-15	0.0000000E+0	-17.153685E-9	6.7213111E+0	41.569557E-12	-8.0702600E+0	326.28843E-6
-175.35068E-12	-226.46797E-15	0.0000000E+0	-17.155930E-9	-8.0749331E+0	42.565326E-12	-8.8135233E+0	312.88725E-6	-233.56767E-15	0.0000000E+0	-17.155930E-9	10.316898E+0	49.059062E-12	-7.9446254E+0	221.53978E-6
-177.59516E-12	-236.26267E-15	0.0000000E+0	-17.158174E-9	-6.2828159E+0	45.870974E-12	-8.8496933E+0	304.13049E-6	-231.82034E-15	0.0000000E+0	-17.158174E-9	1.3313942E+0	54.525478E-12	-8.8985157E+0	173.28429E-6
-179.83964E-12	-241.24569E-15	0.0000000E+0	-17.160419E-9	627.26223E-3	47.758117E-12	-8.3758154E+0	289.63276E-6	-242.87243E-15	0.0000000E+0	-17.160419E-9	5.4689960E+0	58.592610E-12	-8.7082949E+0	150.37510E-6
-182.08413E-12	-248.39741E-15	0.0000000E+0	-17.162662E-9	1.1055754E+0	53.938517E-12	-8.2717190E+0	221.92806E-6	-233.47079E-15	0.0000000E+0	-17.162662E-9	3.3324475E+0	57.083761E-12	-8.9774780E+0	199.40657E-6
-184.32861E-12	-233.95562E-15	0.0000000E+0	-17.164908E-9	-2.7341917E+0	48.924160E-12	-8.6352911E+0	270.50156E-6	-250.36898E-15	0.0000000E+0	-17.164908E-9	5.7192502E+0	47.582747E-12	-8.8695526E+0	308.07426E-6
-186.57309E-12	-236.20006E-15	0.0000000E+0	-17.167151E-9	-10.507745E+0	49.847446E-12	-9.5074434E+0	262.19082E-6	-238.27018E-15	0.0000000E+0	-17.167151E-9	4.1866255E+0	43.796626E-12	-9.1796436E+0	330.17684E-6
-188.81757E-12	-232.69526E-15	0.0000000E+0	-17.169397E-9	-5.8601246E+0	47.831974E-12	-9.3627529E+0	288.48823E-6	-228.10825E-15	0.0000000E+0	-17.169397E-9	4.7432818E+0	55.083316E-12	-9.2381086E+0	203.08775E-6
-191.06211E-12	-230.64081E-15	0.0000000E+0	-17.171640E-9	-7.6385174E+0	50.582306E-12	-9.6942339E+0	262.11029E-6	-230.96488E-15	0.0000000E+0	-17.171640E-9	5.1413240E+0	59.220739E-12	-9.3666573E+0	184.78435E-6
-193.30659E-12	-241.22455E-15	0.0000000E+0	-17.173885E-9	-2.5610445E+0	47.036517E-12	-9.4071541E+0	302.00111E-6	-256.46087E-15	0.0000000E+0	-17.173885E-9	5.4418678E+0	52.315288E-12	-9.4474068E+0	280.29358E-6
-195.55108E-12	-236.12644E-15	0.0000000E+0	-17.176129E-9	-1.6870617E+0	47.181866E-12	-9.3982763E+0	314.68412E-6	-264.02470E-15	0.0000000E+0	-17.176129E-9	6.3498626E+0	47.143549E-12	-9.5752392E+0	338.90034E-6
-197.79556E-12	-229.37411E-15	0.0000000E+0	-17.178374E-9	-1.5466734E+0	60.467187E-12	-9.3930111E+0	150.14091E-6	-257.14459E-15	0.0000000E+0	-17.178374E-9	2.5941765E+0	42.803733E-12	-9.9804497E+0	367.37163E-6
-200.04004E-12	-225.31383E-15	0.0000000E+0	-17.180620E-9	-917.26220E-3	52.725570E-12	-9.3836842E+0	211.39790E-6	-225.87524E-15	0.0000000E+0	-17.180620E-9	8.3971739E+0	47.619443E-12	-9.5948763E+0	294.69660E-6
-202.28452E-12	-237.32841E-15	0.0000000E+0	-17.182863E-9	-6.0811963E+0	50.207481E-12	-9.9364338E+0	236.84899E-6	-241.50674E-15	0.0000000E+0	-17.182863E-9	3.8233507E+0	51.772028E-12	-10.170119E+0	249.16499E-6
-204.52900E-12	-228.82241E-15	0.0000000E+0	-17.185108E-9	-2.2360792E+0	49.543397E-12	-9.7101202E+0	237.57129E-6	-219.57561E-15	0.0000000E+0	-17.185108E-9	8.0586557E+0	53.825507E-12	-9.9645977E+0	239.13622E-6
-206.77349E-12	-239.79749E-15	0.0000000E+0	-17.187352E-9	-375.98068E-3	47.490636E-12	-9.6216059E+0	266.38267E-6	-221.32800E-15	0.0000000E+0	-17.187352E-9	5.3500142E+0	52.091727E-12	-10.430704E+0	272.94751E-6
-209.01797E-12	-210.31440E-15	0.0000000E+0	-17.189597E-9	-3.3690548E+0	51.797032E-12	-9.8921328E+0	224.97476E-6	-241.99455E-15	0.0000000E+0	-17.189597E-9	3.0064993E+0	47.148806E-12	-10.708058E+0	324.52968E-6
-211.26251E-12	-228.89858E-15	0.0000000E+0	-17.191841E-9	-11.034803E+0	53.461281E-12	-10.799417E+0	195.56067E-6	-250.02881E-15	0.0000000E+0	-17.191841E-9	2.9192629E+0	45.104111E-12	-10.834869E+0	330.42993E-6
-213.50699E-12	-255.81273E-15	0.0000000E+0	-17.194086E-9	-716.62074E-3	47.740079E-12	-10.041210E+0	257.08857E-6	-227.27860E-15	0.0000000E+0	-17.194086E-9	4.4892511E+0	51.947911E-12	-10.786314E+0	255.50296E-6
-215.75147E-12	-241.05658E-15	0.0000000E+0	-17.196330E-9	-4.5104361E+0	56.707163E-12	-10.488614E+0	150.57311E-6	-249.78766E-15	0.0000000E+0	-17.196330E-9	6.2343526E+0	51.081483E-12	-10.773834E+0	269.33706E-6
-217.99595E-12	-231.66508E-15	0.0000000E+0	-17.198575E-9	-8.6486158E+0	51.662924E-12	-11.045659E+0	193.02742E-6	-228.80466E-15	0.0000000E+0	-17.198575E-9	1.7393373E+0	40.649380E-12	-11.311907E+0	369.69577E-6
-220.24044E-12	-223.41336E-15	0.0000000E+0	-17.200819E-9	-4.1410909E+0	49.887365E-12	-10.809055E+0	203.43706E-6	-230.32393E-15	0.0000000E+0	-17.200819E-9	2.5879583E+0	47.445447E-12	-11.253054E+0	271.13731E-6
-222.48492E-12	-241.73944E-15	0.0000000E+0	-17.203064E-9	-1.3043861E+0	45.695184E-12	-10.610629E+0	263.25884E-6	-235.94833E-15	0.0000000E+0	-17.203064E-9	8.2443218E+0	43.575529E-12	-10.913887E+0	297.78905E-6
-224.72940E-12	-257.05615E-15	0.0000000E+0	-17.205307E-9	-4.0399814E+0	46.975656E-12	-10.901311E+0	259.28646E-6	-238.14834E-15	0.0000000E+0	-17.205307E-9	8.5816793E+0	43.856457E-12	-11.156026E+0	269.45060E-6
-226.97388E-12	-239.48993E-15	0.0000000E+0	-17.207553E-9	-9.5850153E+0	52.347314E-12	-11.612346E+0	202.90674E-6	-229.10799E-15	0.0000000E+0	-17.207553E-9	-758.41230E-3	49.477773E-12	-12.102773E+0	199.35280E-6
-229.21842E-12	-240.79133E-15	0.0000000E+0	-17.209796E-9	-3.1158855E+0	50.473480E-12	-11.198357E+0	217.06925E-6	-250.94987E-15	0.0000000E+0	-17.209796E-9	3.8181474E+0	48.649012E-12	-11.709286E+0	196.33115E-6
-231.46290E-12	-233.40181E-15	0.0000000E+0	-17.212042E-9	-7.8177519E+0	44.787726E-12	-11.741299E+0	289.34825E-6	-216.84039E-15	0.0000000E+0	-17.212042E-9	7.5564551E+0	54.365384E-12	-11.579048E+0	138.36808E-6
-233.70733E-12	-227.69745E-15	0.0000000E+0	-17.214287E-9	-6.0733581E+0	55.183358E-12	-11.833602E+0	179.16420E-6	-251.23374E-15	0.0000000E+0	-17.214287E-9	10.656524E+0	56.199229E-12	-11.532283E+0	144.66683E-6
-235.95187E-12	-231.33635E-15	0.0000000E+0	-17.216530E-9	-3.1325293E+0	49.783712E-12	-11.681872E+0	223.84977E-6	-246.18176E-15	0.0000000E+0	-17.216530E-9	9.2040205E+0	51.970726E-12	-11.993573E+0	208.00247E-6
-238.19630E-12	-234.43031E-15	0.0000000E+0	-17.218776E-9	-4.1169519E+0	47.182577E-12	-11.862823E+0	257.73983E-6	-246.90734E-15	0.0000000E+0	-17.218776E-9	3.3463669E+0	48.330902E-12	-12.717726E+0	248.72104E-6
-240.44083E-12	-234.62029E-15	0.0000000E+0	-17.221019E-9	-5.1043029E+0	48.712926E-12	-12.074396E+0	254.55968E-6	-244.76276E-15	0.0000000E+0	-17.221019E-9	2.0126030E+0	46.929630E-12	-12.891038E+0	250.76795E-6
-242.68537E-12	-258.31483E-15	0.0000000E+0	-17.223265E-9	-6.8621178E+0	50.542542E-12	-12.423172E+0	236.89457E-6	-223.29320E-15	0.0000000E+0	-17.223265E-9	4.0566673E+0	46.478967E-12	-12.887677E+0	245.94666E-6
-244.92980E-12	-226.41848E-15	0.0000000E+0	-17.225508E-9	-4.8040400E+0	52.628978E-12	-12.406201E+0	204.29752E-6	-244.24194E-15	0.0000000E+0	-17.225508E-9	1.5992033E+0	46.929727E-12	-13.134421E+0	229.59757E-6
-247.17434E-12	-245.05045E-15	0.0000000E+0	-17.227753E-9	-2.6777265E+0	49.109678E-12	-12.375099E+0	237.79838E-6	-236.74034E-15	0.0000000E+0	-17.227753E-9	2.2805502E+0	53.442268E-12	-13.123763E+0	155.23721E-6
-249.41876E-12	-238.68312E-15	0.0000000E+0	-17.229997E-9	-6.1020212E+0	50.375586E-12	-12.772317E+0	229.63711E-6	-240.62208E-15	0.0000000E+0	-17.229997E-9	8.9409389E+0	54.231689E-12	-12.705306E+0	162.62759E-6
-251.66330E-12	-235.86414E-15	0.0000000E+0	-17.232242E-9	-5.6785479E+0	52.754870E-12	-12.960569E+0	198.44405E-6	-234.63509E-15	0.0000000E+0	-17.232242E-9	5.0684838E+0	47.528093E-12	-13.254572E+0	246.40374E-6
-253.90773E-12	-218.88810E-15	0.0000000E+0	-17.234486E-9	-6.5404763E+0	53.143816E-12	-13.184873E+0	183.77036E-6	-221.64150E-15	0.0000000E+0	-17.234486E-9	12.416041E+0	42.344631E-12	-12.860200E+0	282.34371E-6
-256.15227E-12	-250.64312E-15	0.0000000E+0	-17.236731E-9	-4.5198107E+0	58.279971E-12	-13.127267E+0	103.60331E-6	-238.38654E-15	0.0000000E+0	-17.236731E-9	9.1787281E+0	43.424219E-12	-13.475445E+0	240.90297E-6
-258.39680E-12	-235.46771E-15	0.0000000E+0	-17.238975E-9	-4.3279996E+0	49.255940E-12	-13.232262E+0	186.72907E-6	-237.61906E-15	0.0000000E+0	-17.238975E-9	3.8804486E+0	45.962099E-12	-14.095969E+0	198.85645E-6
-260.64123E-12	-232.75197E-15	0.0000000E+0	-17.241220E-9	-7.1863699E+0	57.482411E-12	-13.665953E+0	84.910505E-6	-260.01009E-15	0.0000000E+0	-17.241220E-9	2.2200365E+0	48.194389E-12	-14.319185E+0	161.25799E-6
-262.88577E-12	-230.53122E-15	0.0000000E+0	-17.243464E-9	-9.2914944E+0	52.288347E-12	-14.082255E+0	119.36433E-6	-241.80798E-15	0.0000000E+0	-17.243464E-9	4.6364603E+0	55.820678E-12	-14.200347E+0	87.160071E-6
-265.13020E-12	-229.47269E-15	0.0000000E+0	-17.245709E-9	-9.5187960E+0	53.419276E-12	-14.411196E+0	99.738405E-6	-240.00395E-15	0.0000000E+0	-17.245709E-9	4.5365448E+0	53.104115E-12	-14.345597E+0	134.77683E-6
-267.37473E-12	-225.15389E-15	0.0000000E+0	-17.247954E-9	-570.67019E-3	53.446043E-12	-13.774548E+0	82.924191E-6	-243.23333E-15	0.0000000E+0	-17.247954E-9	5.8436379E+0	53.613922E-12	-14.383135E+0	143.32784E-6
-269.61916E-12	-235.20920E-15	0.0000000E+0	-17.250198E-9	-4.5428233E+0	49.380080E-12	-14.173905E+0	117.72722E-6	-232.41690E-15	0.0000000E+0	-17.250198E-9	4.4374647E+0	48.355916E-12	-14.639619E+0	204.36256E-6
-271.86370E-12	-267.25025E-15	0.0000000E+0	-17.252443E-9	-4.5351887E+0	48.996335E-12	-14.321010E+0	130.65142E-6	-248.17361E-15	0.0000000E+0	-17.252443E-9	6.8040977E+0	55.703487E-12	-14.613871E+0	133.06735E-6
-274.10813E-12	-233.25458E-15	0.0000000E+0	-17.254687E-9	-3.3643091E+0	44.462926E-12	-14.274922E+0	190.63042E-6	-252.10698E-15	0.0000000E+0	-17.254687E-9	9.6911821E+0	47.403258E-12	-14.580445E+0	224.37314E-6
-276.35266E-12	-229.97191E-15	0.0000000E+0	-17.256932E-9	-3.3736904E+0	48.716652E-12	-14.405901E+0	150.51498E-6	-243.18297E-15	0.0000000E+0	-17.256932E-9	11.515839E+0	48.240894E-12	-14.745162E+0	208.03981E-6
-278.59720E-12	-223.92739E-15	0.0000000E+0	-17.259175E-9	-2.5337858E+0	55.900673E-12	-14.441050E+0	70.705260E-6	-242.38421E-15	0.0000000E+0	-17.259175E-9	4.3068275E+0	48.693338E-12	-15.620012E+0	201.57747E-6
-280.84163E-12	-235.15505E-15	0.0000000E+0	-17.261421E-9	-7.1379294E+0	51.727251E-12	-14.945364E+0	99.055018E-6	-222.12634E-15	0.0000000E+0	-17.261421E-9	2.8205082E+0	44.534189E-12	-15.842985E+0	226.88966E-6
-283.08617E-12	-242.89232E-15	0.0000000E+0	-17.263664E-9	-17.187639E+0	44.481425E-12	-16.175657E+0	189.16816E-6	-235.69661E-15	0.0000000E+0	-17.263664E-9	8.3307772E+0	53.633036E-12	-15.540447E+0	127.34972E-6
-285.33059E-12	-232.26882E-15	0.0000000E+0	-17.265910E-9	-5.0739098E+0	45.280502E-12	-15.467710E+0	198.40921E-6	-261.63726E-15	0.0000000E+0	-17.265910E-9	6.4891076E+0	56.875782E-12	-15.949409E+0	115.67352E-6
-287.57513E-12	-226.62452E-15	0.0000000E+0	-17.268153E-9	-750.12439E-3	49.460845E-12	-15.183095E+0	166.66234E-6	-253.04536E-15	0.0000000E+0	-17.268153E-9	1.5019435E+0	49.688701E-12	-16.481796E+0	204.57688E-6
-289.81956E-12	-237.42149E-15	0.0000000E+0	-17.270398E-9	-2.7662265E+0	50.614502E-12	-15.376165E+0	151.11201E-6	-243.38395E-15	0.0000000E+0	-17.270398E-9	2.6978829E+0	49.353483E-12	-16.488430E+0	207.63571E-6
-292.06410E-12	-241.17928E-15	0.0000000E+0	-17.272642E-9	-5.7062163E+0	47.503321E-12	-15.785828E+0	188.60516E-6	-218.47941E-15	0.0000000E+0	-17.272642E-9	1.2678590E+0	46.085618E-12	-16.612108E+0	230.92394E-6
-294.30852E-12	-235.79982E-15	0.0000000E+0	-17.274887E-9	-7.9897819E+0	49.998145E-12	-16.177675E+0	169.24804E-6	-241.66327E-15	0.0000000E+0	-17.274887E-9	322.96982E-3	40.489039E-12	-16.744032E+0	267.90402E-6
-296.55306E-12	-243.84593E-15	0.0000000E+0	-17.277133E-9	-2.6224561E+0	52.365577E-12	-15.894309E+0	136.99006E-6	-232.34539E-15	0.0000000E+0	-17.277133E-9	5.8787322E+0	46.118824E-12	-16.299616E+0	178.56322E-6
-298.79760E-12	-234.06014E-15	0.0000000E+0	-17.279376E-9	-3.6419265E+0	53.535152E-12	-16.039413E+0	111.41446E-6	-246.83670E-15	0.0000000E+0	-17.279376E-9	4.1531210E+0	50.158776E-12	-16.644516E+0	131.23875E-6
-301.04202E-12	-238.67803E-15	0.0000000E+0	-17.281621E-9	-9.8754215E+0	47.951570E-12	-16.800121E+0	167.93355E-6	-239.84913E-15	0.0000000E+0	-17.281621E-9	4.4797301E+0	52.440982E-12	-16.691977E+0	110.17364E-6
-303.28656E-12	-240.98806E-15	0.0000000E+0	-17.283865E-9	-7.5960131E+0	43.424889E-12	-16.821548E+0	234.18368E-6	-231.41799E-15	0.0000000E+0	-17.283865E-9	8.1122389E+0	56.005957E-12	-16.572378E+0	85.271757E-6
-305.53099E-12	-238.63572E-15	0.0000000E+0	-17.286110E-9	-4.8890953E+0	42.973906E-12	-16.787195E+0	265.97708E-6	-240.32298E-15	0.0000000E+0	-17.286110E-9	5.1516161E+0	59.608936E-12	-16.975939E+0	74.365649E-6
-307.77553E-12	-244.61086E-15	0.0000000E+0	-17.288354E-9	-6.1479163E+0	50.116182E-12	-17.054237E+0	203.40833E-6	-243.96696E-15	0.0000000E+0	-17.288354E-9	6.0967965E+0	48.139784E-12	-17.091467E+0	217.98235E-6
-310.01995E-12	-261.63430E-15	0.0000000E+0	-17.290599E-9	-3.0950840E+0	51.639540E-12	-16.872715E+0	179.53571E-6	-229.40880E-15	0.0000000E+0	-17.290599E-9	3.8419459E+0	48.484133E-12	-17.434801E+0	201.39175E-6
-312.26449E-12	-243.54428E-15	0.0000000E+0	-17.292843E-9	-1.7344803E+0	55.323093E-12	-16.870312E+0	132.35335E-6	-252.98147E-15	0.0000000E+0	-17.292843E-9	-706.84576E-3	48.084474E-12	-17.851633E+0	206.06109E-6
-314.50892E-12	-239.37612E-15	0.0000000E+0	-17.295088E-9	-5.3503857E+0	53.200867E-12	-17.297592E+0	140.40738E-6	-226.96595E-15	0.0000000E+0	-17.295088E-9	4.4253244E+0	47.040830E-12	-17.440857E+0	201.77888E-6
-316.75346E-12	-218.45317E-15	0.0000000E+0	-17.297332E-9	-3.3454196E+0	56.658768E-12	-17.249456E+0	86.707492E-6	-216.82727E-15	0.0000000E+0	-17.297332E-9	7.5228539E+0	49.870535E-12	-17.353743E+0	168.68893E-6
-318.99799E-12	-217.34218E-15	0.0000000E+0	-17.299577E-9	-4.8456006E+0	54.276365E-12	-17.508295E+0	84.577972E-6	-251.41101E-15	0.0000000E+0	-17.299577E-9	5.5832281E+0	50.688866E-12	-17.705652E+0	160.79802E-6
-321.24242E-12	-246.45634E-15	0.0000000E+0	-17.301820E-9	-139.35992E-3	53.438851E-12	-17.198214E+0	82.421131E-6	-255.09816E-15	0.0000000E+0	-17.301820E-9	6.4604015E+0	49.906568E-12	-17.824739E+0	173.92979E-6
-323.48696E-12	-237.54631E-15	0.0000000E+0	-17.304066E-9	-7.1729889E+0	46.746496E-12	-17.899738E+0	152.24493E-6	-244.63331E-15	0.0000000E+0	-17.304066E-9	4.3362379E+0	50.459026E-12	-18.224133E+0	166.17685E-6
-325.73139E-12	-246.43560E-15	0.0000000E+0	-17.306309E-9	-2.7093973E+0	50.224484E-12	-17.659929E+0	125.90032E-6	-234.58221E-15	0.0000000E+0	-17.306309E-9	-1.6210687E+0	43.554514E-12	-18.730959E+0	229.72807E-6
-327.97592E-12	-236.42470E-15	0.0000000E+0	-17.308555E-9	-8.1837759E+0	48.215567E-12	-18.324757E+0	151.39430E-6	-238.55999E-15	0.0000000E+0	-17.308555E-9	1.6871289E+0	41.840503E-12	-18.386597E+0	218.90517E-6
-330.22035E-12	-245.23322E-15	0.0000000E+0	-17.310800E-9	-3.3070912E+0	51.245754E-12	-18.110226E+0	116.02725E-6	-235.37845E-15	0.0000000E+0	-17.310800E-9	1.2771825E+0	52.134696E-12	-18.536472E+0	100.89176E-6
-332.46489E-12	-255.82035E-15	0.0000000E+0	-17.313043E-9	-6.2594252E+0	50.964059E-12	-18.476358E+0	112.73114E-6	-230.10774E-15	0.0000000E+0	-17.313043E-9	1.0665498E+0	52.740225E-12	-18.557941E+0	98.511904E-6
-334.70943E-12	-241.24612E-15	0.0000000E+0	-17.315289E-9	-523.18591E-3	49.131619E-12	-18.093534E+0	134.40676E-6	-238.39120E-15	0.0000000E+0	-17.315289E-9	7.7877069E+0	54.907058E-12	-18.111349E+0	89.439010E-6
-336.95385E-12	-214.99832E-15	0.0000000E+0	-17.317532E-9	-5.9211922E+0	49.339709E-12	-18.627748E+0	137.69756E-6	-220.60327E-15	0.0000000E+0	-17.317532E-9	3.2273560E+0	51.860717E-12	-18.631739E+0	133.86180E-6
-339.19839E-12	-233.82023E-15	0.0000000E+0	-17.319778E-9	-6.2932096E+0	44.697232E-12	-18.839426E+0	200.44907E-6	-231.85376E-15	0.0000000E+0	-17.319778E-9	3.2985249E+0	51.953903E-12	-18.767996E+0	140.03586E-6
-341.44282E-12	-256.35809E-15	0.0000000E+0	-17.322021E-9	9.9171074E-3	49.989204E-12	-18.400669E+0	151.37398E-6	-232.76254E-15	0.0000000E+0	-17.322021E-9	377.32276E-3	44.184378E-12	-19.002625E+0	222.58004E-6
-343.68736E-12	-229.62795E-15	0.0000000E+0	-17.324266E-9	-9.0620699E+0	49.164471E-12	-19.258284E+0	162.12922E-6	-239.56184E-15	0.0000000E+0	-17.324266E-9	4.0965419E+0	50.876758E-12	-18.803818E+0	135.26370E-6
-345.93178E-12	-236.89603E-15	0.0000000E+0	-17.326510E-9	-5.9621863E+0	49.116079E-12	-19.261421E+0	164.91933E-6	-253.03436E-15	0.0000000E+0	-17.326510E-9	3.8236835E+0	51.021232E-12	-18.954956E+0	138.39762E-6
-348.17632E-12	-250.56910E-15	0.0000000E+0	-17.328755E-9	-3.7054522E+0	49.439102E-12	-19.177935E+0	166.72302E-6	-222.09377E-15	0.0000000E+0	-17.328755E-9	-8.1817989E+0	45.199729E-12	-19.899914E+0	201.10160E-6
-350.42075E-12	-240.96266E-15	0.0000000E+0	-17.330999E-9	1.1141839E+0	42.870037E-12	-18.831680E+0	253.86631E-6	-227.37422E-15	0.0000000E+0	-17.330999E-9	-3.2649498E+0	45.845095E-12	-19.260811E+0	175.33859E-6
-352.66529E-12	-226.94860E-15	0.0000000E+0	-17.333244E-9	-2.6566820E+0	46.810188E-12	-19.157888E+0	231.95930E-6	-243.03533E-15	0.0000000E+0	-17.333244E-9	5.3232255E+0	44.699133E-12	-18.535341E+0	169.72520E-6
-354.90982E-12	-239.23650E-15	0.0000000E+0	-17.335488E-9	1.8997324E+0	54.555069E-12	-18.765793E+0	136.89022E-6	-239.14638E-15	0.0000000E+0	-17.335488E-9	-1.2646544E+0	45.057985E-12	-19.129881E+0	149.73391E-6
-357.15425E-12	-237.60638E-15	0.0000000E+0	-17.337733E-9	508.30448E-3	54.956924E-12	-18.837334E+0	119.47008E-6	-221.23618E-15	0.0000000E+0	-17.337733E-9	-1.1957362E+0	54.136716E-12	-19.107365E+0	52.732506E-6
-359.39879E-12	-240.85730E-15	0.0000000E+0	-17.339977E-9	-222.10336E-3	51.946954E-12	-18.891867E+0	139.38143E-6	-233.15348E-15	0.0000000E+0	-17.339977E-9	-4.6763759E+0	56.058536E-12	-19.325552E+0	52.017785E-6
-361.64322E-12	-239.88846E-15	0.0000000E+0	-17.342222E-9	529.36256E-3	47.953513E-12	-18.834145E+0	185.81696E-6	-234.21160E-15	0.0000000E+0	-17.342222E-9	-3.3178165E+0	50.496704E-12	-19.066402E+0	122.10086E-6
-363.88775E-12	-226.32752E-15	0.0000000E+0	-17.344467E-9	-1.7230577E+0	54.905597E-12	-19.048485E+0	104.28366E-6	-228.57321E-15	0.0000000E+0	-17.344467E-9	354.94611E-3	56.311223E-12	-18.698284E+0	66.554596E-6
-366.13218E-12	-235.01798E-15	0.0000000E+0	-17.346711E-9	468.87633E-3	51.899235E-12	-18.900028E+0	120.37788E-6	-248.35892E-15	0.0000000E+0	-17.346711E-9	-1.2711972E+0	54.594031E-12	-18.865747E+0	109.88055E-6
-368.37672E-12	-242.43414E-15	0.0000000E+0	-17.348956E-9	-5.5183716E+0	42.047751E-12	-19.449585E+0	238.70247E-6	-228.95780E-15	0.0000000E+0	-17.348956E-9	-5.2237892E+0	44.394672E-12	-19.069483E+0	210.44954E-6
-370.62114E-12	-232.99228E-15	0.0000000E+0	-17.351200E-9	-2.1368890E+0	52.341173E-12	-19.318575E+0	139.85665E-6	-256.28742E-15	0.0000000E+0	-17.351200E-9	-4.9591317E+0	47.515013E-12	-18.920586E+0	167.58918E-6
-372.86568E-12	-249.88412E-15	0.0000000E+0	-17.353445E-9	1.2970510E+0	48.411566E-12	-19.009682E+0	178.73988E-6	-220.62949E-15	0.0000000E+0	-17.353445E-9	-3.9905951E+0	54.134565E-12	-18.684589E+0	98.537828E-6
-375.11022E-12	-228.75134E-15	0.0000000E+0	-17.355688E-9	3.1258810E+0	50.889432E-12	-18.766701E+0	157.79911E-6	-240.01539E-15	0.0000000E+0	-17.355688E-9	-5.0748897E+0	52.508786E-12	-18.684750E+0	132.55731E-6
-377.35465E-12	-247.89226E-15	0.0000000E+0	-17.357934E-9	6.7818127E+0	54.279439E-12	-18.314699E+0	111.11904E-6	-244.43064E-15	0.0000000E+0	-17.357934E-9	146.94475E-3	50.411172E-12	-18.146959E+0	153.93442E-6
-379.59919E-12	-242.46290E-15	0.0000000E+0	-17.360177E-9	2.5004051E+0	45.229587E-12	-18.555447E+0	204.85268E-6	-215.48316E-15	0.0000000E+0	-17.360177E-9	-7.7325506E+0	51.332324E-12	-18.753675E+0	154.07347E-6
-381.84361E-12	-241.17462E-15	0.0000000E+0	-17.362423E-9	-4.0824862E+0	48.456988E-12	-19.141970E+0	182.51684E-6	-236.98529E-15	0.0000000E+0	-17.362423E-9	-8.6555347E+0	43.281344E-12	-18.555922E+0	231.96303E-6
-384.08815E-12	-229.66858E-15	0.0000000E+0	-17.364666E-9	6.5183568E+0	55.693200E-12	-18.217104E+0	101.96328E-6	-243.17917E-15	0.0000000E+0	-17.364666E-9	-9.8988886E+0	43.767913E-12	-18.444414E+0	202.83574E-6
-386.33258E-12	-243.67926E-15	0.0000000E+0	-17.366911E-9	13.570671E+0	53.785639E-12	-17.293077E+0	97.614429E-6	-247.30969E-15	0.0000000E+0	-17.366911E-9	-5.0828185E+0	44.694692E-12	-17.795889E+0	169.52957E-6
-388.57711E-12	-248.73886E-15	0.0000000E+0	-17.369155E-9	4.1984739E+0	46.533263E-12	-17.818829E+0	170.39626E-6	-252.50426E-15	0.0000000E+0	-17.369155E-9	-5.6693063E+0	43.506046E-12	-17.705704E+0	161.84567E-6
-390.82154E-12	-250.95366E-15	0.0000000E+0	-17.371400E-9	12.732051E+0	49.071820E-12	-16.877337E+0	151.74002E-6	-223.50093E-15	0.0000000E+0	-17.371400E-9	-2.4108338E+0	49.222022E-12	-17.304901E+0	85.850399E-6
-393.06608E-12	-224.58866E-15	0.0000000E+0	-17.373646E-9	6.8006363E+0	46.310514E-12	-17.090326E+0	188.79860E-6	-231.54915E-15	0.0000000E+0	-17.373646E-9	-6.5729661E+0	52.676287E-12	-17.555880E+0	53.431006E-6
-395.31062E-12	-217.70687E-15	0.0000000E+0	-17.375889E-9	-2.3860481E+0	46.202105E-12	-17.861237E+0	202.47982E-6	-246.13861E-15	0.0000000E+0	-17.375889E-9	-4.0142512E+0	51.066398E-12	-17.171091E+0	75.084361E-6
-397.55504E-12	-243.30863E-15	0.0000000E+0	-17.378134E-9	63.416943E-3	51.011060E-12	-17.706221E+0	152.92256E-6	-242.37616E-15	0.0000000E+0	-17.378134E-9	-6.6572213E+0	49.022002E-12	-17.210386E+0	102.88491E-6
-399.79958E-12	-252.35703E-15	0.0000000E+0	-17.380378E-9	8.7477303E+0	48.199840E-12	-16.821180E+0	184.42784E-6	-226.69730E-15	0.0000000E+0	-17.380378E-9	-5.7282109E+0	47.650352E-12	-16.961113E+0	104.76383E-6
-402.04401E-12	-220.90196E-15	0.0000000E+0	-17.382623E-9	6.5630150E+0	45.986132E-12	-16.740004E+0	217.01859E-6	-224.01540E-15	0.0000000E+0	-17.382623E-9	-7.1302271E+0	56.924590E-12	-16.881765E+0	12.873441E-6
-404.28855E-12	-256.03949E-15	0.0000000E+0	-17.384867E-9	8.0140753E+0	49.963863E-12	-16.454834E+0	189.03942E-6	-238.84304E-15	0.0000000E+0	-17.384867E-9	-7.6837649E+0	51.081535E-12	-16.708662E+0	92.718648E-6
-406.53297E-12	-246.98223E-15	0.0000000E+0	-17.387112E-9	5.2889066E+0	47.173199E-12	-16.474663E+0	223.51007E-6	-251.02137E-15	0.0000000E+0	-17.387112E-9	-6.7385859E+0	53.542473E-12	-16.434275E+0	71.830145E-6
-408.77751E-12	-236.75471E-15	0.0000000E+0	-17.389356E-9	7.4798760E+0	50.669680E-12	-16.125017E+0	187.88339E-6	-241.38195E-15	0.0000000E+0	-17.389356E-9	-5.1584768E+0	50.785882E-12	-16.127537E+0	113.64979E-6
-411.02205E-12	-238.41657E-15	0.0000000E+0	-17.391601E-9	3.3737648E+0	49.777658E-12	-16.325193E+0	196.75103E-6	-253.29372E-15	0.0000000E+0	-17.391601E-9	-3.1213777E+0	46.531546E-12	-15.832779E+0	154.56729E-6
-413.26648E-12	-249.39588E-15	0.0000000E+0	-17.393845E-9	6.7534838E+0	53.698157E-12	-15.886175E+0	145.59166E-6	-226.38422E-15	0.0000000E+0	-17.393845E-9	-309.51494E-3	47.380704E-12	-15.534642E+0	128.90817E-6
-415.51101E-12	-253.13253E-15	0.0000000E+0	-17.396090E-9	5.2588201E+0	50.947802E-12	-15.835239E+0	166.42427E-6	-240.22014E-15	0.0000000E+0	-17.396090E-9	-1.1053072E+0	55.347064E-12	-15.580501E+0	45.852019E-6
-417.75544E-12	-235.67503E-15	0.0000000E+0	-17.398333E-9	8.7238016E+0	54.004790E-12	-15.321072E+0	125.30068E-6	-226.02714E-15	0.0000000E+0	-17.398333E-9	4.0919967E+0	55.864324E-12	-15.200850E+0	66.152577E-6
-419.99998E-12	-246.87221E-15	0.0000000E+0	-17.400579E-9	5.7081375E+0	50.104771E-12	-15.371947E+0	161.36853E-6	-227.00632E-15	0.0000000E+0	-17.400579E-9	6.4328318E+0	56.490590E-12	-15.184672E+0	82.888830E-6
